DATE 2017:044:07:16:55 obsn 702 az 120 el 45 freq_MHz  1420.4000 Tsys 171.000 Tant 26.456 vlsr  -26.42 glat 69.716 glon 304.466 source 
Fstart 1419.397 fstop 1421.403 spacing 0.009375 bw    2.400 fbw    2.000 MHz nfreq 256 nsam 5242880 npoint 214 integ   607 sigma    0.072 bsw 0
Spectrum    556 integration periods
 191.651  196.039  198.613  200.675  200.841  201.287  201.295  201.673  201.002  200.606  200.497  200.614  200.009  199.929  199.905  199.975  200.492  199.688  199.830  200.002  200.184  199.947  200.150  200.241  200.571  200.359  200.578  200.666  201.558  200.818  200.897  201.122  201.337  200.977  201.058  201.304  201.101  201.710  201.060  201.252  200.984  201.615  200.968  200.717  200.424  200.554  200.374  200.085  200.241  199.892  200.333  199.522  199.560  199.378  200.272  199.608  199.153  199.113  198.698  198.325  198.016  197.956  198.498  199.651  197.444  197.075  197.134  197.796  198.455  225.507  205.792  200.852  196.441  196.081  195.873  196.284  195.980  195.720  195.433  195.629  195.629  195.611  195.945  196.050  196.590  196.329  196.949  197.344  197.846  198.676  198.181  198.196  198.464  198.358  198.352  198.543  199.183  199.563  198.968  199.425  199.094  199.436  199.186  199.415  199.388  200.229  199.645  199.611  199.502  199.835  199.833  199.600  199.665  199.944  200.240  200.215  200.280  200.767  201.807  202.126  203.205  204.214  204.875  205.176  205.082  203.448  202.880  201.786  201.317  201.693  200.525  201.116  200.298  200.232  200.330  199.901  199.848  199.250  199.405  199.784  198.894  198.871  198.759  198.851  198.815  198.798  198.814  198.932  199.199  198.955  199.040  199.236  199.947  199.309  200.282  200.505  199.948  199.752  200.124  200.280  201.061  200.306  200.093  200.338  200.558  200.878  200.479  200.439  200.503  200.914  200.413  200.513  200.379  201.049  200.200  200.177  200.126  199.975  199.927  199.784  199.800  199.492  200.048  199.554  199.797  199.639  199.786  199.687  199.612  199.764  199.958  199.783  199.937  200.164  200.858  200.767  200.743  200.867  200.671  200.858  201.114  201.076  201.103  201.957  201.288  208.812  208.271  201.360  201.553  201.484  201.856  202.147  202.167  201.416 
DATE 2017:044:07:17:08 obsn 703 az 120 el 45 freq_MHz  1420.4000 Tsys 171.000 Tant 26.747 vlsr  -26.45 glat 69.715 glon 304.622 source 
Fstart 1419.397 fstop 1421.403 spacing 0.009375 bw    2.400 fbw    2.000 MHz nfreq 256 nsam 5242880 npoint 214 integ   618 sigma    0.071 bsw 0
Spectrum    566 integration periods
 191.638  196.040  198.610  200.647  200.846  201.257  201.275  201.657  200.985  200.592  200.494  200.576  199.980  199.914  199.885  199.946  200.451  199.662  199.804  199.986  200.186  199.937  200.123  200.218  200.544  200.353  200.565  200.627  201.524  200.801  200.883  201.091  201.306  200.942  201.053  201.288  201.087  201.679  201.025  201.216  200.974  201.598  200.945  200.685  200.404  200.529  200.350  200.058  200.202  199.860  200.307  199.485  199.525  199.338  200.219  199.575  199.141  199.062  198.669  198.289  197.976  197.942  198.472  199.603  197.383  197.038  197.094  197.752  198.392  225.236  205.737  200.785  196.403  196.037  195.817  196.253  195.945  195.683  195.396  195.591  195.581  195.558  195.914  196.013  196.553  196.305  196.922  197.300  197.808  198.631  198.125  198.173  198.420  198.310  198.295  198.497  199.136  199.512  198.938  199.388  199.049  199.381  199.140  199.384  199.349  200.181  199.594  199.580  199.444  199.788  199.776  199.545  199.592  199.877  200.187  200.162  200.212  200.705  201.716  202.034  203.101  204.091  204.710  205.032  204.955  203.368  202.823  201.784  201.323  201.698  200.502  201.084  200.232  200.162  200.273  199.833  199.783  199.214  199.348  199.717  198.836  198.805  198.684  198.802  198.750  198.734  198.756  198.866  199.140  198.904  198.987  199.182  199.881  199.241  200.211  200.470  199.886  199.690  200.065  200.210  200.998  200.241  200.029  200.283  200.491  200.816  200.418  200.366  200.427  200.862  200.340  200.451  200.328  200.995  200.131  200.112  200.069  199.913  199.851  199.725  199.739  199.435  199.992  199.507  199.764  199.581  199.724  199.634  199.559  199.700  199.915  199.737  199.889  200.120  200.797  200.716  200.695  200.834  200.625  200.820  201.060  201.026  201.046  201.910  201.240  208.617  208.102  201.313  201.493  201.431  201.810  202.086  202.115  201.368 
DATE 2017:044:07:17:21 obsn 704 az 120 el 45 freq_MHz  1420.4000 Tsys 171.000 Tant 26.746 vlsr  -26.48 glat 69.713 glon 304.777 source 
Fstart 1419.397 fstop 1421.403 spacing 0.009375 bw    2.400 fbw    2.000 MHz nfreq 256 nsam 5242880 npoint 214 integ   629 sigma    0.070 bsw 0
Spectrum    576 integration periods
 191.624  196.011  198.594  200.617  200.816  201.241  201.246  201.652  200.974  200.590  200.470  200.577  199.972  199.905  199.860  199.930  200.415  199.643  199.786  199.978  200.166  199.933  200.129  200.196  200.522  200.317  200.550  200.608  201.519  200.785  200.864  201.074  201.281  200.920  201.043  201.260  201.061  201.660  201.003  201.190  200.952  201.568  200.914  200.647  200.388  200.503  200.313  200.045  200.174  199.824  200.263  199.471  199.481  199.319  200.170  199.534  199.133  199.032  198.651  198.266  197.921  197.904  198.435  199.538  197.317  197.009  197.058  197.710  198.307  224.980  205.648  200.708  196.344  195.998  195.765  196.199  195.912  195.644  195.364  195.552  195.542  195.526  195.870  195.979  196.542  196.261  196.909  197.265  197.770  198.581  198.094  198.127  198.383  198.270  198.273  198.462  199.101  199.491  198.909  199.359  198.991  199.344  199.099  199.344  199.304  200.163  199.550  199.524  199.398  199.738  199.717  199.505  199.547  199.831  200.140  200.096  200.158  200.639  201.639  201.940  202.997  203.950  204.569  204.913  204.839  203.271  202.796  201.769  201.322  201.703  200.468  201.048  200.186  200.108  200.221  199.772  199.725  199.161  199.279  199.674  198.794  198.729  198.629  198.730  198.700  198.687  198.703  198.803  199.073  198.848  198.929  199.118  199.833  199.175  200.138  200.393  199.819  199.631  200.001  200.135  200.933  200.173  199.966  200.232  200.437  200.752  200.383  200.300  200.381  200.800  200.287  200.380  200.270  200.923  200.078  200.050  200.004  199.846  199.797  199.672  199.687  199.391  199.937  199.446  199.699  199.519  199.664  199.571  199.501  199.650  199.865  199.693  199.855  200.072  200.749  200.669  200.636  200.794  200.593  200.762  200.995  200.983  201.013  201.873  201.203  208.442  207.938  201.257  201.443  201.377  201.774  202.033  202.067  201.319 
DATE 2017:044:07:17:34 obsn 705 az 120 el 45 freq_MHz  1420.4000 Tsys 171.000 Tant 26.932 vlsr  -26.52 glat 69.712 glon 304.933 source 
Fstart 1419.397 fstop 1421.403 spacing 0.009375 bw    2.400 fbw    2.000 MHz nfreq 256 nsam 5242880 npoint 214 integ   640 sigma    0.070 bsw 0
Spectrum    586 integration periods
 191.613  196.008  198.579  200.594  200.805  201.223  201.234  201.644  200.976  200.554  200.454  200.562  199.973  199.897  199.834  199.906  200.401  199.635  199.772  199.946  200.156  199.910  200.127  200.195  200.504  200.298  200.531  200.583  201.493  200.752  200.840  201.061  201.262  200.905  201.040  201.236  201.020  201.633  200.962  201.176  200.927  201.549  200.892  200.628  200.354  200.480  200.284  200.026  200.131  199.770  200.246  199.440  199.456  199.291  200.142  199.508  199.110  199.021  198.611  198.219  197.882  197.867  198.380  199.471  197.265  196.988  197.031  197.678  198.255  224.712  205.612  200.634  196.321  195.965  195.710  196.179  195.872  195.623  195.332  195.528  195.512  195.490  195.851  195.970  196.527  196.244  196.890  197.222  197.722  198.534  198.076  198.132  198.347  198.254  198.237  198.426  199.070  199.438  198.873  199.300  198.957  199.282  199.063  199.301  199.271  200.125  199.508  199.478  199.355  199.688  199.652  199.462  199.503  199.775  200.065  200.033  200.101  200.565  201.583  201.860  202.891  203.829  204.437  204.773  204.721  203.191  202.750  201.779  201.326  201.700  200.441  201.015  200.146  200.063  200.163  199.711  199.670  199.111  199.221  199.611  198.718  198.687  198.569  198.684  198.633  198.627  198.632  198.748  199.001  198.790  198.874  199.072  199.757  199.102  200.070  200.313  199.761  199.588  199.941  200.091  200.876  200.097  199.909  200.178  200.384  200.699  200.312  200.249  200.306  200.722  200.222  200.327  200.208  200.858  200.008  199.989  199.947  199.790  199.758  199.625  199.640  199.349  199.885  199.392  199.654  199.468  199.604  199.523  199.458  199.626  199.828  199.659  199.814  200.039  200.687  200.629  200.595  200.755  200.558  200.709  200.939  200.939  200.971  201.817  201.155  208.281  207.782  201.211  201.398  201.335  201.739  201.977  202.021  201.253 
DATE 2017:044:07:17:48 obsn 706 az 120 el 45 freq_MHz  1420.4000 Tsys 171.000 Tant 26.494 vlsr  -26.55 glat 69.710 glon 305.088 source 
Fstart 1419.397 fstop 1421.403 spacing 0.009375 bw    2.400 fbw    2.000 MHz nfreq 256 nsam 5242880 npoint 214 integ   651 sigma    0.069 bsw 0
Spectrum    596 integration periods
 191.614  195.991  198.579  200.563  200.780  201.201  201.228  201.617  200.963  200.537  200.447  200.544  199.979  199.874  199.828  199.906  200.396  199.609  199.743  199.918  200.136  199.893  200.128  200.179  200.463  200.271  200.521  200.567  201.460  200.728  200.815  201.035  201.243  200.883  201.037  201.222  200.995  201.594  200.943  201.133  200.889  201.524  200.877  200.603  200.326  200.455  200.256  200.019  200.087  199.749  200.234  199.414  199.428  199.251  200.105  199.484  199.084  198.991  198.574  198.199  197.847  197.825  198.333  199.415  197.242  196.944  196.977  197.637  198.201  224.435  205.539  200.586  196.285  195.914  195.664  196.145  195.839  195.605  195.315  195.497  195.501  195.464  195.825  195.936  196.495  196.208  196.869  197.188  197.693  198.491  198.035  198.099  198.319  198.238  198.190  198.397  199.053  199.409  198.829  199.257  198.926  199.238  199.035  199.262  199.220  200.069  199.456  199.439  199.304  199.651  199.590  199.422  199.466  199.716  200.001  199.976  200.032  200.506  201.521  201.750  202.793  203.703  204.297  204.637  204.604  203.129  202.696  201.771  201.340  201.688  200.406  200.989  200.103  200.000  200.090  199.651  199.620  199.048  199.156  199.560  198.663  198.621  198.503  198.611  198.592  198.554  198.563  198.682  198.932  198.728  198.811  199.019  199.701  199.033  199.988  200.258  199.706  199.541  199.879  200.047  200.818  200.039  199.843  200.132  200.318  200.653  200.246  200.183  200.259  200.665  200.151  200.266  200.134  200.790  199.960  199.939  199.903  199.732  199.709  199.585  199.605  199.314  199.849  199.349  199.605  199.417  199.560  199.483  199.422  199.564  199.788  199.610  199.769  199.978  200.639  200.578  200.549  200.706  200.499  200.664  200.892  200.894  200.920  201.763  201.090  208.119  207.641  201.164  201.348  201.298  201.698  201.948  201.980  201.215 
