DATE 2017:074:10:31:14 obsn   0 az 150 el 19 freq_MHz  1420.4000 Tsys 127.050 Tant 22.792 vlsr  -40.07 glat -0.205 glon  0.117 azoff 0.00 eloff 0.00 source G0.0 
Fstart 1419.397 fstop 1421.403 spacing 0.009375 bw    2.400 fbw    2.000 MHz nfreq 256 nsam 5242880 npoint 214 integ     2 sigma    0.888 bsw 0
Spectrum      2 integration periods
 143.570  141.560  142.827  142.293  141.401  141.694  141.661  142.277  143.045  142.219  142.623  144.004  141.939  142.869  141.671  143.734  144.674  141.172  141.341  141.308  141.540  139.566  141.528  142.877  141.448  141.641  141.521  141.948  142.713  140.120  140.993  142.425  141.489  141.795  142.152  140.149  139.101  141.776  139.774  141.390  141.247  141.860  141.621  140.475  141.710  141.233  140.974  141.705  142.095  141.575  142.677  140.476  141.714  142.797  140.291  142.131  142.519  142.681  142.025  142.458  142.435  141.849  142.886  141.562  141.577  140.668  141.385  143.129  143.856  148.701  146.084  146.132  142.688  144.892  141.957  142.704  142.035  142.029  142.150  142.123  140.613  141.544  141.457  142.188  142.493  140.277  142.233  141.012  140.731  140.603  140.654  144.433  141.329  140.827  141.828  141.244  142.855  143.468  141.462  142.146  141.125  141.428  142.967  142.155  141.622  143.375  143.845  140.512  142.851  141.558  141.599  142.415  143.196  144.306  143.957  146.180  147.565  146.352  147.523  147.135  147.449  147.138  148.169  150.205  150.780  154.777  158.020  159.692  162.925  170.033  166.974  165.360  167.253  172.066  172.442  165.419  161.998  156.566  156.481  155.512  151.777  150.636  149.686  144.360  146.064  144.906  145.805  143.787  143.428  143.407  142.617  143.070  142.931  142.200  142.720  142.782  141.053  141.760  141.728  143.056  141.628  142.009  141.442  141.700  141.794  142.222  142.927  141.559  142.494  143.202  142.834  142.242  142.433  143.198  141.977  141.006  140.654  141.445  142.070  141.049  141.837  141.311  143.617  141.734  142.660  143.277  142.860  140.376  143.367  142.813  141.880  141.838  142.315  143.373  143.735  141.424  142.016  140.342  141.925  141.542  142.770  141.014  142.189  141.944  142.259  144.645  145.614  141.210  141.381  141.805  141.548  142.236  142.033  141.746 
DATE 2017:074:10:31:27 obsn   1 az 150 el 19 freq_MHz  1420.4000 Tsys 127.050 Tant 22.924 vlsr  -40.07 glat -0.205 glon  0.117 azoff 0.00 eloff 0.00 source G0.0 
Fstart 1419.397 fstop 1421.403 spacing 0.009375 bw    2.400 fbw    2.000 MHz nfreq 256 nsam 5242880 npoint 214 integ    13 sigma    0.362 bsw 0
Spectrum     12 integration periods
 145.118  144.400  145.224  145.355  145.062  144.327  145.113  145.335  145.358  145.746  145.635  145.769  145.329  145.685  144.908  145.960  146.217  144.261  145.208  145.015  144.615  144.630  145.703  145.084  145.873  145.350  145.623  145.745  146.032  144.090  144.943  144.889  144.282  144.629  144.428  144.211  144.524  144.330  145.049  144.165  143.755  144.496  145.021  144.769  144.032  144.394  145.071  144.640  145.004  144.771  145.112  144.669  144.573  144.673  144.995  144.974  145.063  144.739  145.233  144.581  145.018  144.749  146.184  145.885  145.329  144.303  145.343  145.764  147.155  159.723  148.502  150.335  145.965  146.069  145.135  144.635  145.578  144.544  144.682  144.840  144.674  145.077  145.611  144.892  145.053  144.877  145.712  145.199  144.782  144.931  144.857  145.335  145.193  144.807  144.910  145.476  145.589  145.605  144.794  144.552  145.500  144.433  145.188  145.308  144.663  145.171  144.373  144.851  144.887  145.074  145.404  145.781  146.718  146.658  147.318  148.430  148.490  149.242  150.828  151.333  152.489  154.355  154.924  158.238  161.636  166.787  172.577  177.330  184.748  191.405  190.328  185.388  191.504  200.364  199.240  190.742  183.639  173.893  168.297  166.015  161.276  158.920  156.101  154.355  152.424  151.782  150.765  149.957  148.913  148.271  147.486  146.784  147.250  146.060  146.911  146.219  145.276  145.194  145.674  145.737  144.895  145.132  144.853  145.190  145.606  145.772  145.332  145.378  144.894  145.083  144.794  145.087  144.593  145.382  145.205  144.676  144.960  145.158  144.126  145.027  145.209  145.177  143.942  144.165  144.036  144.980  144.810  143.223  144.359  144.881  144.503  144.711  145.260  144.139  144.750  144.454  143.960  144.041  144.174  144.903  143.989  144.123  144.273  144.393  144.199  150.150  149.705  144.056  143.412  144.731  144.554  144.411  144.830  145.118 
DATE 2017:074:10:31:40 obsn   2 az 150 el 19 freq_MHz  1420.4000 Tsys 127.050 Tant 22.718 vlsr  -40.07 glat -0.205 glon  0.117 azoff 0.00 eloff 0.00 source G0.0 
Fstart 1419.397 fstop 1421.403 spacing 0.009375 bw    2.400 fbw    2.000 MHz nfreq 256 nsam 5242880 npoint 214 integ    24 sigma    0.268 bsw 0
Spectrum     22 integration periods
 145.083  144.734  145.341  145.393  145.479  144.666  145.472  145.798  145.942  145.845  145.966  145.877  145.572  145.893  145.103  145.929  146.021  145.134  145.825  145.438  145.106  145.382  145.510  145.470  146.038  145.334  145.376  145.769  146.001  144.748  145.130  144.880  144.908  144.735  144.850  144.435  144.705  144.685  144.998  144.766  144.490  144.973  145.362  145.052  144.477  144.719  144.573  144.625  145.568  145.337  145.199  145.133  144.768  145.309  145.487  145.449  145.548  145.469  145.770  144.996  145.129  145.180  145.976  145.594  144.970  144.833  145.077  145.572  147.076  160.911  148.263  150.760  145.970  145.914  145.578  145.335  145.955  145.404  145.324  145.277  144.875  145.801  146.031  145.014  145.396  145.137  145.958  145.880  144.993  145.536  145.210  145.658  145.559  145.293  145.408  145.554  145.711  145.740  145.109  145.274  145.636  145.334  145.652  145.748  145.170  145.602  144.791  145.548  145.438  145.722  145.791  146.011  146.941  147.189  147.677  148.365  148.858  149.664  150.855  151.894  153.010  154.822  155.977  159.463  162.735  167.575  173.699  179.613  186.699  193.612  191.861  187.278  193.470  202.953  201.446  193.577  185.085  175.228  169.332  166.161  162.131  159.470  156.990  154.946  153.411  152.216  151.127  150.974  149.602  148.660  148.192  147.540  147.316  146.935  147.068  146.706  145.839  145.693  146.043  146.145  145.439  145.859  145.333  145.610  145.818  146.073  145.707  145.248  145.210  145.241  145.099  144.810  144.808  145.456  145.058  144.795  145.386  144.951  144.237  145.050  145.331  145.225  144.680  144.552  144.553  145.215  145.013  143.932  144.493  145.177  144.510  145.041  144.819  144.466  144.491  144.474  144.659  144.297  144.208  145.135  144.563  144.457  144.682  144.586  144.955  151.124  149.797  144.166  144.183  144.740  144.640  144.454  144.956  145.002 
DATE 2017:074:10:32:04 obsn   3 az 141 el 24 freq_MHz  1420.4000 Tsys 127.050 Tant 21.248 vlsr  -42.34 glat -0.205 glon 10.118 azoff 0.00 eloff 0.00 source G10.0 
Fstart 1419.397 fstop 1421.403 spacing 0.009375 bw    2.400 fbw    2.000 MHz nfreq 256 nsam 5242880 npoint 214 integ     7 sigma    0.513 bsw 0
Spectrum      6 integration periods
 142.089  142.222  143.083  142.429  141.958  141.774  141.946  142.627  143.218  142.824  142.899  142.746  144.202  142.864  142.606  143.547  142.549  141.963  142.853  142.792  142.866  142.513  142.513  143.448  143.145  142.352  142.012  143.243  142.877  143.088  143.367  141.878  143.624  143.244  142.628  142.783  142.002  141.677  142.831  143.516  141.743  142.739  142.491  141.937  144.102  142.530  142.389  142.756  143.705  142.903  143.566  143.051  143.069  142.482  142.952  143.817  143.374  143.997  143.413  143.310  143.752  144.211  144.427  144.636  142.125  143.819  142.854  144.485  144.205  170.438  150.487  146.837  143.886  143.017  143.757  144.143  144.022  143.689  143.867  143.304  142.795  142.940  143.861  143.092  142.876  144.246  143.888  144.260  141.943  143.953  143.639  144.328  144.791  142.506  143.013  143.725  144.968  143.786  144.032  144.515  144.289  145.056  144.669  144.424  145.464  145.028  145.991  145.848  145.884  147.267  149.097  148.580  149.675  150.341  151.319  153.601  154.071  155.711  157.702  160.085  164.904  167.835  170.049  174.667  178.494  182.615  185.463  189.807  191.338  191.963  189.636  187.265  188.450  192.870  189.445  178.141  170.356  165.719  162.914  162.069  160.070  159.466  158.956  157.561  155.962  153.841  152.734  151.150  149.168  148.803  146.835  146.891  145.638  144.256  145.381  146.349  144.890  144.978  144.641  143.203  144.838  142.755  142.950  143.819  143.315  143.521  143.755  143.168  143.438  143.497  143.483  143.827  143.421  144.125  143.531  142.960  143.642  143.670  144.240  144.141  144.385  143.290  144.660  143.388  144.200  143.394  143.758  142.474  142.430  143.322  143.387  143.942  143.107  143.121  144.414  143.127  144.490  144.319  144.531  143.425  143.671  142.753  143.858  144.033  144.528  145.344  145.003  144.668  144.358  144.419  144.256  143.433  144.864  143.227 
DATE 2017:074:10:32:17 obsn   4 az 141 el 24 freq_MHz  1420.4000 Tsys 127.050 Tant 21.518 vlsr  -42.34 glat -0.205 glon 10.118 azoff 0.00 eloff 0.00 source G10.0 
Fstart 1419.397 fstop 1421.403 spacing 0.009375 bw    2.400 fbw    2.000 MHz nfreq 256 nsam 5242880 npoint 214 integ    17 sigma    0.314 bsw 0
Spectrum     16 integration periods
 142.132  142.302  142.583  142.528  141.781  142.301  141.809  142.097  142.344  142.173  142.479  142.502  142.756  142.328  142.623  142.878  142.692  142.010  142.375  142.197  142.770  142.184  142.605  142.534  142.860  142.221  142.262  142.240  143.190  142.634  143.053  142.092  142.884  142.462  142.220  142.176  141.545  142.144  142.674  142.688  141.901  142.823  142.067  141.916  142.676  142.235  142.715  142.075  142.877  142.525  143.135  142.259  142.635  142.459  142.746  142.721  143.624  143.674  143.139  142.426  142.595  143.072  143.990  144.368  142.015  142.979  142.790  144.010  144.289  172.087  150.467  145.142  143.750  143.353  143.314  143.643  143.905  143.296  143.571  143.234  142.717  142.969  142.931  143.470  143.187  143.381  143.308  143.645  143.057  143.197  143.719  143.341  143.484  142.950  143.182  143.258  144.428  144.339  144.336  144.110  144.243  144.672  144.774  144.997  145.601  145.768  145.921  146.360  146.396  147.776  149.353  149.756  149.742  150.778  152.192  153.714  155.039  156.436  158.563  161.118  165.615  169.629  172.509  176.468  180.672  184.220  187.461  190.495  191.792  192.870  190.389  186.773  187.840  191.851  187.289  176.526  168.537  164.230  161.775  161.054  159.975  159.530  159.683  157.570  156.153  154.039  152.502  151.357  149.498  148.442  147.628  146.230  145.878  144.954  144.727  146.001  144.828  143.707  144.176  143.383  144.058  142.898  143.351  142.792  143.029  142.991  143.383  142.917  143.047  143.756  143.242  143.323  143.054  143.274  143.211  143.528  143.150  143.678  143.218  143.419  143.913  143.318  144.121  143.342  144.116  143.069  143.589  142.900  142.681  143.654  144.048  143.010  143.252  143.343  143.972  143.652  144.115  143.522  143.848  143.334  143.883  143.067  143.428  143.669  143.582  144.021  144.588  143.616  144.002  143.160  143.701  143.787  144.574  143.873 
DATE 2017:074:10:32:41 obsn   5 az 131 el 28 freq_MHz  1420.4000 Tsys 127.050 Tant 21.468 vlsr  -43.33 glat -0.200 glon 20.118 azoff 0.00 eloff 0.00 source G20.0 
Fstart 1419.397 fstop 1421.403 spacing 0.009375 bw    2.400 fbw    2.000 MHz nfreq 256 nsam 5242880 npoint 214 integ     1 sigma    1.256 bsw 0
Spectrum      1 integration periods
 141.967  142.518  140.591  141.012  140.531  141.356  141.599  143.658  142.637  143.059  140.791  144.064  143.169  141.425  141.103  140.898  140.121  144.113  145.075  144.112  142.961  141.249  142.631  142.041  142.484  141.781  143.766  141.864  142.867  140.053  140.919  143.007  142.847  140.539  142.246  142.595  143.212  142.564  143.999  142.725  140.781  141.311  142.611  142.056  140.592  139.951  143.102  142.049  144.717  142.702  144.856  144.177  142.999  142.268  141.924  140.862  143.073  140.027  143.609  142.888  142.817  141.501  142.470  145.672  145.403  145.429  143.411  143.056  145.751  170.877  141.967  143.964  142.319  142.023  141.517  141.678  144.081  144.475  143.456  145.183  142.603  144.999  140.966  143.816  144.343  144.384  145.318  142.188  141.711  144.771  145.588  144.229  142.380  144.288  141.929  141.071  145.365  143.185  145.940  144.359  144.193  144.388  146.306  145.913  145.657  144.877  145.000  147.218  149.704  149.769  147.830  153.606  152.822  151.471  152.130  153.748  154.177  157.739  159.304  161.593  166.085  169.114  174.960  178.036  182.017  184.255  187.828  189.659  190.951  192.349  188.356  184.888  188.620  190.218  183.754  175.264  168.926  163.301  158.291  160.603  160.589  160.542  158.672  159.181  158.672  153.617  153.422  151.595  149.183  149.079  149.368  148.138  146.821  144.790  144.103  142.409  144.864  143.736  144.448  144.537  143.315  143.408  141.917  144.810  143.966  143.979  144.483  141.818  142.471  144.447  141.675  142.825  142.185  144.358  142.900  143.225  142.645  143.965  143.808  143.053  142.954  141.521  144.116  145.115  144.959  143.007  143.965  147.498  143.650  142.590  141.919  142.474  141.751  145.848  141.588  142.003  142.293  143.582  143.592  144.325  142.922  144.081  142.505  143.938  144.051  145.552  141.259  145.087  145.623  142.457  142.877  141.893  143.396  143.811 
DATE 2017:074:10:32:54 obsn   6 az 131 el 28 freq_MHz  1420.4000 Tsys 127.050 Tant 19.774 vlsr  -43.33 glat -0.200 glon 20.118 azoff 0.00 eloff 0.00 source G20.0 
Fstart 1419.397 fstop 1421.403 spacing 0.009375 bw    2.400 fbw    2.000 MHz nfreq 256 nsam 5242880 npoint 214 integ    12 sigma    0.379 bsw 0
Spectrum     11 integration periods
 141.669  140.575  141.137  141.336  140.714  140.415  140.699  141.795  140.610  140.681  141.408  142.203  140.718  140.770  140.931  141.682  140.578  140.782  140.892  140.650  141.291  140.380  141.224  141.124  140.672  140.824  141.571  140.933  140.940  140.968  140.787  140.655  140.585  140.567  141.239  140.639  140.414  140.913  140.205  140.578  139.858  140.314  139.593  139.787  140.041  140.180  140.730  140.927  140.734  140.728  141.217  140.029  140.729  140.211  140.291  141.195  140.907  141.101  141.145  140.929  140.406  141.051  141.350  142.024  140.621  140.610  141.565  143.183  142.824  151.704  150.303  144.072  143.296  141.658  142.177  143.050  143.009  142.709  143.326  143.544  143.424  143.500  142.544  143.437  143.252  143.219  143.557  143.697  142.800  144.467  143.618  143.264  142.994  143.745  143.649  143.695  143.918  143.536  143.703  144.176  144.750  144.165  144.759  144.995  144.848  145.787  145.817  146.581  147.377  147.072  147.908  149.243  149.839  150.828  152.297  153.262  155.490  159.221  161.259  163.800  167.223  171.444  175.140  179.770  183.862  184.506  184.810  183.620  183.137  181.910  178.350  178.107  182.814  186.610  189.247  181.633  166.229  157.073  153.749  152.913  151.520  150.563  150.525  150.901  150.068  150.231  150.418  150.446  150.406  149.338  149.256  149.419  148.845  148.052  148.256  146.097  143.784  143.435  143.407  142.778  141.886  142.028  142.133  141.855  141.221  141.839  141.223  140.555  140.828  141.838  141.591  140.690  141.249  141.650  141.175  141.174  140.330  140.965  141.675  141.014  140.808  141.360  141.266  141.958  141.631  141.112  142.122  142.719  141.168  141.259  141.881  140.967  142.409  141.425  141.214  141.812  141.282  141.787  141.740  142.088  141.335  141.971  141.738  142.293  141.654  143.852  143.491  142.268  141.602  141.041  141.322  142.024  142.791  142.088 
DATE 2017:074:10:33:07 obsn   7 az 131 el 28 freq_MHz  1420.4000 Tsys 127.050 Tant 20.102 vlsr  -43.33 glat -0.200 glon 20.118 azoff 0.00 eloff 0.00 source G20.0 
Fstart 1419.397 fstop 1421.403 spacing 0.009375 bw    2.400 fbw    2.000 MHz nfreq 256 nsam 5242880 npoint 214 integ    23 sigma    0.274 bsw 0
Spectrum     21 integration periods
 141.315  140.591  140.897  141.460  140.383  140.661  140.927  141.452  140.962  141.063  141.679  141.799  140.673  140.788  141.097  141.330  140.465  140.893  140.952  140.959  141.334  140.262  141.076  141.006  140.984  140.799  141.375  140.809  141.117  141.104  140.475  140.648  140.315  140.568  140.866  140.032  140.286  140.762  140.206  140.150  139.715  140.660  140.079  139.973  140.102  140.458  140.112  140.741  140.714  140.353  140.575  139.954  140.226  140.449  140.553  140.952  140.610  141.109  141.098  140.570  140.573  140.896  140.982  142.060  140.706  140.743  141.419  143.131  142.677  150.431  151.365  143.727  142.973  142.043  142.449  142.821  143.216  142.961  143.455  143.220  143.268  143.368  142.719  143.699  143.231  143.469  143.451  143.629  143.518  144.306  143.373  143.377  143.445  143.752  143.604  143.473  144.030  143.769  143.939  144.025  144.614  144.330  144.668  145.131  145.562  146.301  146.218  146.845  147.098  147.577  148.318  149.299  150.033  150.722  152.255  153.726  155.709  158.884  161.237  163.954  166.903  171.490  175.924  180.234  183.837  184.493  183.855  183.351  183.020  182.070  178.500  178.327  182.507  186.707  189.088  182.055  166.435  156.716  153.341  152.705  150.973  150.259  150.305  150.298  149.748  149.936  150.136  150.179  150.298  149.905  149.831  149.661  149.658  148.080  148.299  146.162  144.685  143.677  143.573  142.646  142.203  142.029  142.145  141.797  141.049  141.414  141.264  140.804  141.013  141.895  141.589  140.919  140.979  141.494  141.578  141.485  140.339  141.071  141.110  141.136  141.521  141.229  141.624  141.524  141.649  141.045  141.917  142.010  141.359  141.084  142.048  141.497  141.880  141.496  141.049  141.788  141.413  141.789  141.748  141.694  141.209  141.633  141.748  142.502  141.859  143.935  143.913  142.076  141.899  141.416  141.675  142.213  142.342  142.222 
DATE 2017:074:10:33:34 obsn   8 az 120 el 32 freq_MHz  1420.4000 Tsys 127.050 Tant 20.074 vlsr  -42.99 glat -0.188 glon 30.118 azoff 0.00 eloff 0.00 source G30.0 
Fstart 1419.397 fstop 1421.403 spacing 0.009375 bw    2.400 fbw    2.000 MHz nfreq 256 nsam 5242880 npoint 214 integ     5 sigma    0.561 bsw 0
Spectrum      5 integration periods
 139.857  141.206  139.998  140.926  140.613  140.036  140.212  142.022  140.921  140.739  141.957  140.664  140.774  140.717  141.289  141.093  140.938  141.058  141.470  140.848  141.357  140.732  140.544  140.746  141.137  140.048  139.145  140.679  141.547  140.232  140.266  140.684  140.313  140.457  141.279  141.878  140.809  141.148  140.988  141.103  140.619  139.988  140.145  139.971  140.902  141.130  141.194  140.363  141.136  140.151  141.536  140.112  140.722  140.156  141.609  140.809  142.431  141.043  141.092  141.766  141.665  139.788  141.425  142.386  140.900  140.072  141.841  142.276  141.496  143.776  143.798  143.147  142.849  142.667  141.614  142.499  143.757  143.434  142.535  143.412  144.089  143.252  145.271  144.725  146.284  145.912  146.079  145.643  144.454  146.104  146.966  145.831  146.889  147.037  146.656  146.299  147.825  146.746  147.745  147.008  147.186  147.898  147.565  147.016  149.297  149.785  148.916  150.378  150.068  150.770  150.058  151.918  153.339  153.317  155.798  156.656  156.041  157.363  159.330  161.401  162.522  166.488  169.716  172.726  176.270  175.607  177.926  181.180  181.307  181.247  180.870  181.137  186.361  187.566  183.774  175.245  160.762  152.680  148.550  148.449  147.262  146.517  145.484  147.356  145.312  146.626  147.065  147.742  147.927  147.239  148.968  149.986  151.389  150.600  150.537  150.713  151.751  151.250  151.112  149.284  148.763  147.938  144.660  143.801  144.137  143.806  142.683  142.580  142.238  141.202  141.585  140.921  141.843  141.929  141.199  140.840  140.199  140.530  140.345  140.304  142.240  142.472  141.512  140.685  141.902  140.566  141.220  141.165  141.238  141.315  141.327  140.619  141.376  140.317  141.043  141.714  141.038  141.403  141.423  141.748  141.499  142.463  140.405  142.330  141.404  141.638  142.430  141.028  141.600  141.001  140.611  141.165  141.399  140.970 
DATE 2017:074:10:33:47 obsn   9 az 120 el 32 freq_MHz  1420.4000 Tsys 127.050 Tant 20.198 vlsr  -42.99 glat -0.188 glon 30.118 azoff 0.00 eloff 0.00 source G30.0 
Fstart 1419.397 fstop 1421.403 spacing 0.009375 bw    2.400 fbw    2.000 MHz nfreq 256 nsam 5242880 npoint 214 integ    16 sigma    0.324 bsw 0
Spectrum     15 integration periods
 140.700  141.188  140.418  141.281  141.112  140.541  140.946  141.955  140.968  140.899  141.193  140.833  140.660  140.998  141.135  140.555  140.960  140.797  140.969  140.732  141.050  140.531  140.894  140.709  141.349  140.530  140.619  141.222  141.384  140.742  140.394  141.553  140.823  140.042  140.958  141.411  140.579  141.361  140.597  140.766  141.167  140.419  140.298  139.663  140.667  140.399  140.707  140.421  140.698  140.304  141.454  140.693  141.048  140.977  141.692  141.414  141.717  141.524  141.734  141.376  141.262  140.876  141.197  142.069  141.140  140.848  141.608  142.292  142.264  143.524  142.553  143.076  142.251  142.103  141.501  142.113  142.869  142.729  142.906  144.146  144.148  144.567  144.829  145.455  146.631  145.798  146.174  147.236  146.151  147.074  147.136  146.441  147.462  147.678  147.096  147.023  148.551  147.502  147.077  147.664  148.478  148.271  148.472  148.124  149.912  149.827  149.318  149.949  150.513  151.437  151.703  152.907  153.810  154.938  156.516  156.715  156.527  157.294  159.654  160.802  162.631  165.968  168.991  171.706  174.078  174.756  177.411  179.740  179.548  180.407  180.437  182.701  185.181  186.051  183.496  174.383  161.381  151.644  148.036  147.837  146.484  145.608  145.565  145.854  145.770  146.701  146.808  147.074  147.887  147.701  149.290  148.954  150.511  150.957  151.171  151.497  152.337  151.526  151.840  150.284  149.748  148.123  146.199  144.959  145.057  143.283  143.058  142.252  142.170  141.937  141.775  141.455  141.615  142.245  141.023  141.241  141.074  140.952  141.505  141.131  141.464  142.038  141.597  140.899  141.782  141.409  141.026  141.195  140.747  141.377  141.597  140.693  140.738  140.421  141.256  140.831  141.267  140.961  141.741  141.374  141.532  141.366  140.594  141.909  141.474  141.403  141.762  141.431  141.526  141.154  141.168  141.255  141.549  141.156 
DATE 2017:074:10:34:00 obsn  10 az 120 el 32 freq_MHz  1420.4000 Tsys 127.050 Tant 20.497 vlsr  -42.99 glat -0.188 glon 30.118 azoff 0.00 eloff 0.00 source G30.0 
Fstart 1419.397 fstop 1421.403 spacing 0.009375 bw    2.400 fbw    2.000 MHz nfreq 256 nsam 5242880 npoint 214 integ    27 sigma    0.251 bsw 0
Spectrum     25 integration periods
 140.669  141.237  140.597  141.189  140.777  140.820  140.613  141.369  141.115  141.086  141.242  140.885  140.891  141.244  141.218  140.690  141.373  140.838  141.166  140.807  141.157  140.727  141.302  140.804  141.685  140.623  140.758  141.628  141.701  140.900  140.700  141.294  140.594  140.487  140.730  140.960  140.716  141.297  140.810  140.585  140.847  140.567  140.423  139.959  140.649  140.357  140.516  140.814  140.773  140.475  141.424  140.871  140.830  140.699  141.660  141.398  141.690  141.476  141.401  141.087  141.031  140.705  140.860  141.886  141.111  141.264  141.501  142.577  142.015  143.837  141.456  142.852  142.165  142.329  141.630  142.329  142.693  142.731  142.931  143.981  144.343  144.757  144.892  145.915  146.710  145.975  146.183  146.784  146.473  147.123  147.198  147.199  147.733  147.835  147.512  147.344  148.538  147.538  147.300  147.929  148.451  148.747  148.671  148.890  149.467  150.043  149.392  150.113  150.566  151.574  152.117  153.359  153.851  155.037  156.101  156.615  156.686  157.462  159.484  161.059  162.803  165.758  168.486  171.550  173.858  175.352  177.098  179.247  179.755  180.748  180.205  182.653  184.981  186.232  183.274  174.014  161.173  152.044  148.254  147.546  146.175  145.481  145.853  145.876  145.781  146.403  146.726  147.007  147.535  147.739  149.408  149.040  150.464  150.994  151.261  151.887  152.389  151.653  152.192  150.555  149.964  148.300  146.533  145.266  144.833  143.357  142.932  142.365  142.035  142.031  141.558  141.481  141.391  141.693  141.060  141.363  141.344  141.283  141.483  141.302  141.786  141.699  141.662  141.547  141.886  141.380  141.042  140.742  140.971  141.398  141.710  140.662  141.157  140.902  141.423  141.234  141.329  140.950  141.802  141.480  141.302  141.205  140.501  141.790  141.207  141.456  141.751  141.330  141.350  140.847  141.379  141.219  141.481  141.698 
DATE 2017:074:10:34:27 obsn  11 az 109 el 34 freq_MHz  1420.4000 Tsys 127.050 Tant 19.826 vlsr  -41.35 glat -0.171 glon 40.118 azoff 0.00 eloff 0.00 source G40.0 
Fstart 1419.397 fstop 1421.403 spacing 0.009375 bw    2.400 fbw    2.000 MHz nfreq 256 nsam 5242880 npoint 214 integ    10 sigma    0.419 bsw 0
Spectrum      9 integration periods
 140.028  139.753  139.759  140.161  139.470  139.105  139.345  139.382  140.020  140.117  139.493  140.080  138.839  139.777  139.429  139.383  139.102  139.991  140.140  140.416  139.314  139.011  139.065  139.635  139.564  139.151  139.831  139.134  140.192  140.215  140.654  139.505  140.329  139.598  139.735  139.647  139.809  139.324  139.429  139.192  139.589  138.647  139.455  139.285  139.085  140.236  138.417  138.527  139.826  138.901  139.339  139.364  138.501  138.495  140.431  140.109  139.640  140.876  140.350  139.791  138.599  139.170  140.003  141.066  139.650  139.379  140.538  140.257  142.166  144.099  149.029  142.423  140.912  140.058  140.516  140.066  140.372  140.076  140.774  141.001  140.740  141.426  141.502  141.430  142.976  141.609  142.756  142.049  143.254  143.307  143.395  145.007  146.413  146.922  146.823  147.462  148.207  148.816  148.178  148.931  150.674  150.503  152.288  153.270  153.569  154.611  155.262  156.274  154.916  156.444  156.824  158.849  159.516  163.272  165.735  168.071  170.023  171.470  172.210  173.062  174.236  174.566  173.706  171.735  171.007  169.651  171.802  172.288  174.205  174.306  175.974  178.829  180.631  175.747  169.817  158.098  150.423  146.623  144.905  143.423  143.402  143.806  143.457  143.727  143.980  143.703  144.840  145.960  146.100  147.483  148.355  148.274  148.734  149.080  148.958  149.643  149.107  148.256  150.523  150.600  151.602  152.418  151.499  151.686  151.917  150.289  147.886  146.352  145.310  144.336  143.378  142.072  141.613  142.114  140.987  141.359  141.144  140.814  140.835  140.970  140.262  140.612  141.179  140.607  140.963  140.418  140.490  141.116  140.762  140.359  140.918  140.151  140.632  140.410  141.344  140.394  140.898  141.838  140.171  140.213  140.704  140.682  141.798  141.581  140.962  141.587  140.983  140.389  141.238  139.999  140.936  141.408  141.065  141.047 
DATE 2017:074:10:34:40 obsn  12 az 109 el 34 freq_MHz  1420.4000 Tsys 127.050 Tant 19.859 vlsr  -41.35 glat -0.171 glon 40.118 azoff 0.00 eloff 0.00 source G40.0 
Fstart 1419.397 fstop 1421.403 spacing 0.009375 bw    2.400 fbw    2.000 MHz nfreq 256 nsam 5242880 npoint 214 integ    21 sigma    0.288 bsw 0
Spectrum     19 integration periods
 139.808  139.458  139.291  139.964  139.588  139.316  139.485  139.602  139.631  139.744  139.235  139.898  139.310  139.480  139.077  139.574  139.464  139.414  139.712  139.914  139.172  139.262  139.337  139.774  139.486  139.393  140.038  139.483  140.334  139.894  139.603  139.224  140.071  139.648  139.789  139.570  139.735  139.356  139.240  139.324  139.544  138.557  139.343  139.154  139.513  139.754  138.842  138.677  139.531  139.157  139.441  139.112  138.850  138.667  140.643  139.616  139.924  140.097  139.742  139.836  139.304  139.338  139.991  140.716  139.837  139.605  139.843  140.192  142.250  143.495  149.256  142.093  140.462  140.089  139.900  139.766  140.155  139.626  140.718  140.675  140.557  140.822  141.056  140.920  141.993  141.655  142.681  142.019  142.826  143.241  143.801  144.775  145.751  146.339  147.127  147.813  148.184  148.380  148.990  149.401  150.867  150.931  152.590  153.133  153.944  154.649  155.013  155.727  155.732  156.658  157.388  158.920  160.174  163.882  166.318  168.792  170.745  172.692  173.376  173.843  174.397  175.146  174.551  172.529  171.044  170.491  171.344  172.543  173.395  173.844  175.507  179.458  179.841  175.469  168.130  157.358  149.870  146.008  144.153  143.169  143.318  143.557  143.539  143.591  143.876  143.798  144.338  145.994  146.842  147.197  148.156  148.726  148.764  149.225  149.091  149.524  149.138  148.217  150.221  150.571  151.792  152.422  152.456  152.879  152.977  150.433  148.515  146.650  145.770  144.347  143.329  142.400  141.761  142.177  141.238  141.702  141.792  141.187  140.830  140.991  140.561  140.701  141.491  141.188  141.027  140.239  140.331  141.401  140.721  140.458  141.261  140.315  140.715  140.471  140.954  140.592  140.295  140.903  140.376  140.400  141.339  141.156  141.516  141.210  140.944  141.653  140.866  140.538  140.917  140.446  141.110  141.087  140.544  141.319 
DATE 2017:074:10:35:07 obsn  13 az  97 el 36 freq_MHz  1420.4000 Tsys 127.050 Tant 17.601 vlsr  -38.45 glat -0.149 glon 50.118 azoff 0.00 eloff 0.00 source G50.0 
Fstart 1419.397 fstop 1421.403 spacing 0.009375 bw    2.400 fbw    2.000 MHz nfreq 256 nsam 5242880 npoint 214 integ     3 sigma    0.725 bsw 0
Spectrum      3 integration periods
 139.080  138.442  138.715  137.882  137.940  138.062  138.577  139.809  138.720  138.429  137.914  139.861  138.683  138.484  138.424  138.507  138.800  138.682  138.373  139.738  139.115  139.017  139.316  138.951  140.185  138.783  138.501  139.219  138.594  139.121  138.736  138.675  140.009  138.353  138.438  137.326  138.173  139.359  137.405  138.454  137.287  140.154  137.673  137.680  139.280  138.772  139.483  137.721  137.665  138.574  138.368  137.839  138.306  138.280  137.833  138.661  139.400  140.673  138.100  139.001  138.496  138.061  137.729  140.518  139.361  139.509  138.013  140.339  140.217  141.631  154.894  140.652  138.960  139.485  138.304  138.611  138.059  139.647  138.557  139.290  137.734  138.742  139.464  139.753  139.799  139.906  139.339  139.382  140.473  142.419  140.354  141.809  140.369  141.739  142.909  143.479  144.808  145.020  147.175  146.730  149.314  150.154  151.401  152.457  152.373  153.572  154.161  155.286  155.712  157.380  156.723  157.616  157.896  160.699  161.604  161.833  164.292  166.733  169.578  168.045  169.208  169.238  169.342  169.204  169.734  169.835  171.723  173.104  171.720  175.758  179.124  179.557  176.595  168.724  159.385  153.886  144.560  142.948  142.052  143.376  142.573  141.960  142.154  142.372  142.551  142.499  142.339  144.265  144.483  145.373  144.102  146.590  146.011  146.200  147.128  147.632  146.830  147.391  149.592  147.599  149.592  149.993  148.503  149.959  150.227  148.831  147.165  147.989  146.098  146.860  144.713  144.645  144.993  143.147  142.493  141.808  142.292  141.254  141.193  139.694  138.975  141.009  140.613  138.956  138.963  140.459  139.298  141.253  140.157  139.466  140.159  140.178  138.651  139.870  140.347  138.714  139.831  140.480  139.232  140.054  140.222  137.660  139.989  140.830  139.693  140.670  140.624  140.474  141.017  137.404  139.966  140.121  140.163  140.255 
DATE 2017:074:10:35:20 obsn  14 az  97 el 36 freq_MHz  1420.4000 Tsys 127.050 Tant 17.541 vlsr  -38.45 glat -0.149 glon 50.118 azoff 0.00 eloff 0.00 source G50.0 
Fstart 1419.397 fstop 1421.403 spacing 0.009375 bw    2.400 fbw    2.000 MHz nfreq 256 nsam 5242880 npoint 214 integ    14 sigma    0.348 bsw 0
Spectrum     13 integration periods
 139.258  138.306  138.252  138.554  138.716  138.496  138.376  139.210  139.056  138.954  138.299  138.849  138.709  138.610  138.217  138.988  139.324  138.891  138.443  138.974  138.989  138.780  139.372  138.797  139.272  138.606  138.355  138.756  139.053  138.989  138.088  137.770  138.758  138.444  138.239  137.877  138.045  138.936  137.933  138.367  138.319  139.163  138.110  137.454  138.255  138.322  138.106  137.676  137.549  137.501  138.639  137.794  138.357  137.698  139.068  138.323  138.603  138.765  138.089  138.409  137.822  138.077  138.606  139.186  138.418  138.679  138.769  139.457  139.635  143.178  148.503  141.170  139.096  138.848  138.313  139.202  138.269  138.635  137.902  139.232  138.831  138.848  138.917  139.054  139.326  138.483  138.964  138.397  139.427  139.770  139.302  139.703  139.720  140.267  140.683  141.161  143.188  143.730  144.584  146.210  147.213  149.190  149.917  152.681  152.434  154.708  154.370  154.846  154.806  155.293  155.977  156.371  156.468  157.940  159.309  159.806  162.490  163.716  165.823  164.713  166.085  167.382  167.363  167.268  168.352  169.031  171.572  173.086  173.859  177.767  179.685  179.072  174.714  166.399  156.963  149.613  144.826  142.947  142.332  143.365  141.276  141.421  141.880  141.732  142.373  141.491  141.870  142.782  143.366  143.643  143.769  144.536  145.932  145.678  145.762  146.192  146.221  146.528  147.335  147.323  148.679  147.682  147.211  147.660  147.190  147.491  147.012  147.375  146.821  147.368  146.074  145.710  144.856  145.363  143.720  142.380  142.079  141.180  141.499  140.613  139.381  139.772  141.139  139.627  139.363  139.691  139.638  140.014  139.890  139.340  139.568  139.563  139.232  139.869  140.355  139.138  139.314  139.739  139.300  139.640  139.045  138.795  139.905  140.733  140.096  140.129  140.457  139.897  139.206  138.434  139.759  140.029  140.390  140.509 
DATE 2017:074:10:35:33 obsn  15 az  97 el 36 freq_MHz  1420.4000 Tsys 127.050 Tant 17.661 vlsr  -38.45 glat -0.149 glon 50.118 azoff 0.00 eloff 0.00 source G50.0 
Fstart 1419.397 fstop 1421.403 spacing 0.009375 bw    2.400 fbw    2.000 MHz nfreq 256 nsam 5242880 npoint 214 integ    25 sigma    0.262 bsw 0
Spectrum     23 integration periods
 138.922  138.346  138.170  138.797  138.488  138.881  138.432  139.241  138.980  138.632  138.329  138.763  138.810  138.536  138.405  138.691  139.190  138.589  138.499  138.918  139.013  138.571  139.162  138.748  139.065  138.847  138.460  138.891  139.201  138.613  138.278  138.226  138.866  138.330  138.259  137.906  137.880  139.199  138.034  138.114  138.397  139.133  138.122  137.920  138.133  138.187  137.957  137.505  137.732  137.638  138.516  138.173  138.252  137.689  138.798  138.216  138.421  138.341  138.441  138.247  137.998  138.191  138.841  139.174  138.530  138.734  138.595  139.581  139.418  143.468  147.660  141.593  139.138  138.695  138.311  139.054  138.357  138.255  137.822  138.947  138.534  138.518  138.781  138.707  139.064  138.562  138.567  138.059  139.488  139.326  139.090  139.495  139.603  139.997  140.385  141.034  143.238  144.079  144.401  145.946  147.064  149.131  150.070  152.069  152.487  154.488  154.637  154.995  154.942  155.744  155.682  156.292  156.368  157.663  159.090  159.927  162.152  163.344  165.815  165.150  166.157  166.536  167.299  167.202  167.959  169.521  171.587  172.688  173.689  178.041  179.642  179.066  174.046  165.911  156.884  148.693  144.717  142.751  142.257  143.027  141.440  141.521  141.577  141.640  142.017  141.635  141.422  142.960  143.483  143.426  143.912  144.267  146.157  145.597  145.786  146.044  145.940  146.731  147.057  147.157  148.467  147.320  147.275  147.108  147.297  147.443  146.962  147.029  146.914  147.296  146.208  145.875  145.175  145.627  143.815  142.513  141.786  141.177  141.354  140.141  139.349  139.814  141.199  139.370  139.316  139.772  139.976  139.554  139.391  139.049  139.586  139.259  139.053  139.304  140.434  139.150  139.482  139.814  138.854  139.661  139.123  139.099  139.615  140.583  139.599  140.045  140.645  139.825  139.298  138.411  139.382  139.962  140.378  140.243 
DATE 2017:074:10:36:00 obsn  16 az  84 el 36 freq_MHz  1420.4000 Tsys 127.050 Tant 15.859 vlsr  -34.39 glat -0.122 glon 60.118 azoff 0.00 eloff 0.00 source G60.0 
Fstart 1419.397 fstop 1421.403 spacing 0.009375 bw    2.400 fbw    2.000 MHz nfreq 256 nsam 5242880 npoint 214 integ     8 sigma    0.475 bsw 0
Spectrum      7 integration periods
 138.486  137.387  137.002  137.886  137.354  137.541  137.324  137.236  137.704  137.234  137.912  137.230  138.068  138.001  137.104  138.101  137.627  137.643  137.937  137.701  137.947  137.453  136.948  137.287  137.077  137.400  136.975  137.721  138.433  137.773  136.916  136.155  136.369  136.158  137.039  136.804  137.102  136.368  136.429  136.267  136.358  137.375  137.857  137.081  136.993  137.351  137.042  136.951  137.378  136.080  136.388  135.851  137.337  136.790  137.029  137.593  137.472  137.319  137.508  135.749  136.590  137.390  136.810  139.149  136.353  136.767  136.984  136.791  139.364  141.728  141.470  142.550  137.526  137.126  137.587  137.411  137.736  137.063  136.930  136.832  137.372  137.685  137.606  137.548  137.476  136.243  136.834  137.037  137.778  138.232  136.381  136.780  136.867  137.840  137.375  137.478  138.254  138.043  138.413  138.641  139.130  140.242  139.764  142.973  142.673  144.118  144.685  145.700  146.360  147.511  149.626  151.155  151.607  154.548  154.982  155.731  158.023  157.285  160.134  160.915  161.625  163.986  165.188  166.735  169.874  174.148  181.561  184.212  184.012  178.749  171.932  166.075  160.103  153.448  150.476  146.490  145.777  143.335  143.324  142.624  142.802  140.666  140.542  140.830  139.914  139.786  139.843  140.736  141.311  141.035  140.425  140.892  141.681  143.225  144.938  145.611  146.962  148.578  149.316  149.077  148.870  149.407  149.564  149.080  150.339  149.625  149.238  148.149  148.237  149.852  148.166  147.791  146.331  146.226  145.580  144.079  144.215  143.982  143.586  144.094  143.438  141.255  141.704  140.958  140.611  139.572  138.744  137.973  138.828  137.896  138.039  137.960  137.592  137.324  138.313  138.326  138.207  136.952  137.787  137.356  137.840  137.295  137.722  139.439  138.015  140.823  140.534  138.676  138.753  138.565  137.743  138.121  138.753  137.907 
DATE 2017:074:10:36:13 obsn  17 az  84 el 36 freq_MHz  1420.4000 Tsys 127.050 Tant 16.344 vlsr  -34.39 glat -0.122 glon 60.118 azoff 0.00 eloff 0.00 source G60.0 
Fstart 1419.397 fstop 1421.403 spacing 0.009375 bw    2.400 fbw    2.000 MHz nfreq 256 nsam 5242880 npoint 214 integ    19 sigma    0.305 bsw 0
Spectrum     17 integration periods
 137.782  137.643  136.862  137.578  137.299  137.243  137.673  137.597  137.640  137.058  137.641  137.395  137.836  137.685  137.317  137.828  137.660  137.996  137.513  138.065  137.620  137.378  136.962  137.637  137.426  137.823  137.390  137.501  137.899  137.596  136.806  136.980  136.859  136.975  136.800  137.255  136.992  136.808  136.759  136.552  136.564  136.884  137.633  137.184  136.749  137.041  136.500  136.822  137.279  136.101  137.009  136.459  137.395  136.760  137.298  137.169  137.665  137.310  137.242  136.857  137.028  136.661  137.146  139.413  136.776  137.134  137.345  137.025  139.151  141.290  144.842  143.283  137.682  137.266  136.823  136.844  137.519  137.086  137.064  136.797  137.094  137.342  137.315  137.293  137.235  136.577  137.831  137.339  137.668  138.667  136.991  136.917  137.258  137.172  137.066  137.488  138.195  137.921  138.054  138.624  138.685  139.301  139.538  141.597  141.501  143.020  142.916  145.020  146.676  147.066  149.235  150.756  151.361  154.149  154.955  156.103  157.280  158.371  159.992  160.774  161.618  163.308  165.215  166.499  169.726  174.700  182.241  185.632  184.311  179.028  171.656  165.297  158.586  152.593  150.226  147.178  145.642  144.040  143.921  143.077  142.495  141.444  141.181  141.060  140.257  140.464  140.317  140.057  140.845  140.589  140.537  140.801  142.389  142.817  144.878  146.951  147.067  148.271  149.121  149.455  149.765  150.082  149.828  150.350  150.703  150.143  149.769  148.494  149.054  149.895  148.810  148.005  146.735  145.828  145.157  144.461  144.261  144.330  143.365  144.114  143.205  141.576  141.562  140.814  140.162  139.474  139.388  138.485  138.790  137.857  138.236  138.190  137.733  137.512  138.519  138.003  138.006  137.704  137.711  137.375  137.666  137.370  137.614  138.536  138.075  140.877  140.450  138.850  138.062  138.069  137.768  137.999  138.202  138.221 
DATE 2017:074:10:36:40 obsn  18 az  72 el 35 freq_MHz  1420.4000 Tsys 127.050 Tant 16.037 vlsr  -29.28 glat -0.091 glon 70.118 azoff 0.00 eloff 0.00 source G70.0 
Fstart 1419.397 fstop 1421.403 spacing 0.009375 bw    2.400 fbw    2.000 MHz nfreq 256 nsam 5242880 npoint 214 integ     1 sigma    1.256 bsw 0
Spectrum      1 integration periods
 138.167  138.032  135.773  136.280  137.268  138.661  137.149  137.639  138.172  140.366  137.654  136.025  136.902  138.582  139.075  137.937  137.862  136.332  138.622  137.976  137.288  136.644  138.712  140.955  134.523  136.457  136.192  135.222  135.815  135.745  137.698  136.627  137.708  139.788  137.677  138.778  137.946  136.602  136.221  136.469  136.838  136.146  135.106  136.039  136.343  135.873  134.888  133.409  135.571  138.064  137.351  139.105  138.511  138.561  137.048  134.871  139.069  136.840  135.017  138.365  133.349  137.944  135.539  138.165  136.651  139.278  137.043  138.209  140.006  137.067  141.766  144.609  136.888  134.948  137.077  139.503  139.027  136.548  136.638  137.721  136.254  139.480  137.406  139.979  136.565  137.139  136.427  137.981  134.205  139.455  135.489  135.475  137.122  137.464  137.551  138.788  135.777  136.538  137.669  139.252  139.695  140.940  139.953  141.502  143.127  143.000  139.990  143.104  145.663  146.171  150.507  147.930  148.905  156.053  151.953  156.954  157.070  160.854  158.552  159.493  163.281  163.962  163.871  165.790  167.156  177.160  183.927  184.980  183.857  177.636  169.886  163.314  157.214  153.572  149.801  146.279  146.376  145.746  144.497  143.938  142.754  142.108  143.325  142.357  138.574  141.867  141.624  140.935  140.721  139.548  136.969  140.486  143.560  140.837  144.372  144.388  144.817  149.977  149.253  148.433  153.374  150.434  148.731  151.713  152.214  152.351  151.250  151.658  150.161  149.751  147.794  147.194  144.175  146.302  145.868  147.295  145.675  145.218  143.860  142.482  141.836  144.633  140.240  140.127  140.887  141.119  137.939  135.548  138.970  137.048  136.309  136.735  134.825  139.246  138.167  138.546  137.351  137.246  137.253  138.507  138.885  137.483  137.331  139.159  136.846  140.254  138.423  135.820  138.174  136.889  137.469  138.561  139.867  139.417 
DATE 2017:074:10:36:53 obsn  19 az  72 el 35 freq_MHz  1420.4000 Tsys 127.050 Tant 16.039 vlsr  -29.28 glat -0.091 glon 70.118 azoff 0.00 eloff 0.00 source G70.0 
Fstart 1419.397 fstop 1421.403 spacing 0.009375 bw    2.400 fbw    2.000 MHz nfreq 256 nsam 5242880 npoint 214 integ    12 sigma    0.379 bsw 0
Spectrum     11 integration periods
 137.501  137.672  136.808  137.234  137.098  137.582  137.556  137.606  137.859  137.976  137.741  137.361  136.899  137.168  137.118  137.451  137.333  137.132  137.399  136.852  137.257  137.646  137.392  137.484  136.380  136.996  137.514  136.272  136.111  136.884  137.312  136.294  136.997  136.854  137.095  135.766  136.649  136.158  136.606  136.707  136.400  137.417  135.911  136.926  135.892  135.999  135.807  135.889  136.279  136.715  136.318  137.013  136.572  136.638  136.631  136.508  137.083  136.874  136.451  137.500  136.248  137.474  136.954  139.719  136.139  136.913  136.040  137.670  138.361  152.044  154.130  141.588  137.037  136.706  136.859  136.376  136.948  136.347  137.054  137.865  136.291  137.359  136.402  136.798  137.090  137.396  137.354  137.350  136.885  137.284  136.903  136.913  136.353  136.305  137.158  136.699  137.056  137.461  137.091  136.929  137.100  136.772  137.154  138.095  137.882  138.581  137.734  138.648  138.548  139.461  140.314  141.310  142.213  144.549  146.509  147.955  152.132  155.803  159.098  162.111  166.103  169.375  172.611  176.580  179.646  182.906  183.828  181.337  177.374  171.975  164.872  162.155  157.706  154.011  153.231  150.914  149.293  147.928  146.890  146.700  144.734  144.561  144.028  143.491  141.836  141.614  141.932  141.260  141.464  141.428  141.519  141.152  142.328  142.477  144.128  145.151  145.660  146.563  148.629  150.323  153.349  153.932  155.048  155.997  155.875  155.004  153.486  151.106  149.393  147.745  146.024  145.210  144.840  144.857  144.721  144.342  143.318  143.811  142.694  142.335  142.788  143.495  143.082  143.046  142.288  141.108  140.527  139.693  139.064  137.789  137.833  138.226  137.919  138.127  137.644  137.698  137.372  137.832  137.901  136.911  138.168  137.527  138.017  138.116  137.503  138.355  138.221  137.761  137.933  137.748  138.129  137.739  138.298  139.370 
DATE 2017:074:10:37:06 obsn  20 az  72 el 35 freq_MHz  1420.4000 Tsys 127.050 Tant 15.923 vlsr  -29.28 glat -0.091 glon 70.118 azoff 0.00 eloff 0.00 source G70.0 
Fstart 1419.397 fstop 1421.403 spacing 0.009375 bw    2.400 fbw    2.000 MHz nfreq 256 nsam 5242880 npoint 214 integ    23 sigma    0.274 bsw 0
Spectrum     21 integration periods
 137.360  137.417  136.884  136.964  137.134  137.424  137.623  137.311  137.558  137.970  137.391  137.207  137.172  137.015  136.699  137.288  136.947  137.036  137.447  137.037  137.044  137.172  137.033  137.542  136.896  137.247  136.883  136.786  136.749  137.118  136.913  136.933  137.059  136.766  137.117  136.395  136.377  136.636  136.555  136.846  136.429  137.016  136.477  136.836  135.900  136.717  136.349  136.154  136.791  136.551  136.171  136.829  136.730  136.551  136.722  136.520  137.476  137.133  136.442  137.414  136.559  137.181  136.678  139.897  136.237  137.350  136.472  137.616  138.416  152.794  153.437  141.354  137.275  136.722  137.021  136.373  136.922  136.802  136.965  137.321  136.774  137.510  136.758  136.741  136.744  136.992  137.248  136.976  136.873  137.253  136.784  137.127  136.654  136.719  136.939  136.889  137.022  137.188  136.927  137.242  137.447  137.171  136.928  137.607  137.295  138.053  137.614  138.435  138.308  139.420  139.732  140.732  142.046  143.886  146.029  147.621  151.414  155.493  159.004  162.271  166.188  169.798  172.885  176.998  180.583  183.361  183.649  181.557  176.784  171.469  165.028  161.633  157.170  153.923  153.294  150.964  149.869  148.571  147.009  146.613  144.950  144.821  143.881  143.673  142.020  141.626  141.806  141.649  141.461  141.517  141.445  141.931  142.391  142.910  144.473  145.882  145.723  146.403  148.800  150.528  153.262  154.460  155.598  156.057  156.160  155.084  153.293  150.728  149.371  147.854  145.642  145.415  145.504  145.136  144.357  143.848  143.136  143.527  142.999  142.423  143.265  143.441  143.200  142.505  142.060  141.307  140.264  139.587  138.848  137.976  137.895  138.338  137.734  137.832  137.730  137.798  137.571  137.990  137.867  137.464  137.672  137.280  137.886  138.059  137.842  137.970  138.161  138.033  137.569  137.743  137.587  137.702  138.497  139.011 
DATE 2017:074:10:37:33 obsn  21 az  60 el 33 freq_MHz  1420.4000 Tsys 127.050 Tant 19.228 vlsr  -23.28 glat -0.057 glon 80.118 azoff 0.00 eloff 0.00 source G80.0 
Fstart 1419.397 fstop 1421.403 spacing 0.009375 bw    2.400 fbw    2.000 MHz nfreq 256 nsam 5242880 npoint 214 integ     7 sigma    0.513 bsw 0
Spectrum      6 integration periods
 138.443  139.214  139.113  140.498  138.931  139.094  138.585  139.181  138.322  138.661  138.888  138.217  138.715  137.806  138.670  139.573  138.634  138.389  139.702  138.558  138.559  137.809  139.524  139.391  139.078  138.873  139.456  139.801  138.104  139.132  138.577  137.559  138.400  138.921  138.408  139.129  138.279  138.397  137.929  138.491  139.220  138.921  138.533  137.403  138.231  137.932  137.505  137.830  138.188  138.491  138.275  138.080  137.362  137.423  137.991  137.444  138.595  137.871  139.333  137.945  138.783  138.811  139.928  140.175  139.121  138.007  137.806  139.207  139.237  144.880  142.492  139.968  138.670  139.554  138.123  139.722  138.757  138.095  137.238  137.901  138.980  138.436  138.981  138.663  139.398  138.866  138.642  138.073  138.181  138.573  138.346  138.258  137.513  138.708  138.639  138.415  139.513  139.036  138.304  138.232  138.544  138.967  138.977  138.170  140.301  140.024  138.630  139.926  139.239  140.264  140.552  141.533  141.525  143.287  144.987  147.967  152.853  158.125  164.688  170.615  178.340  184.647  188.927  191.929  194.002  194.408  193.631  190.174  187.648  180.841  177.264  172.178  168.538  163.586  160.436  155.501  156.028  153.669  152.661  151.619  151.031  152.153  151.782  151.428  151.159  150.994  150.965  149.947  149.842  149.107  149.287  146.751  147.650  146.525  146.914  149.675  149.656  150.995  151.468  154.117  156.040  156.583  157.142  158.229  157.505  158.839  157.240  155.002  153.892  152.809  151.365  148.341  148.046  146.829  144.843  145.266  143.476  143.562  143.785  143.184  143.702  144.287  144.635  144.655  143.998  143.327  142.155  141.136  142.044  141.732  141.546  140.271  140.327  140.364  141.036  138.483  139.544  139.736  139.424  139.907  140.103  140.804  139.920  140.782  140.009  140.030  140.566  140.652  140.053  140.125  140.561  140.815  140.900  140.981 
DATE 2017:074:10:37:54 obsn  22 az  61 el 33 freq_MHz  1420.4000 Tsys 127.050 Tant 19.717 vlsr  -23.28 glat -0.057 glon 80.118 azoff 0.00 eloff 0.00 source G80.0 
Fstart 1419.397 fstop 1421.403 spacing 0.009375 bw    2.400 fbw    2.000 MHz nfreq 256 nsam 5242880 npoint 214 integ    17 sigma    0.314 bsw 0
Spectrum     16 integration periods
 138.694  138.971  139.386  139.967  139.163  139.289  139.314  139.445  138.957  139.407  139.312  139.305  139.477  139.088  138.846  139.429  139.365  138.484  139.365  139.026  139.278  138.726  139.390  139.323  139.753  139.331  139.332  139.533  139.575  139.358  139.042  138.656  138.853  139.005  138.675  138.919  138.609  139.078  138.840  138.807  139.054  139.244  138.589  138.364  138.346  138.142  138.280  138.337  138.665  138.626  138.628  138.285  138.110  137.716  138.018  138.006  138.437  138.718  139.161  138.525  138.873  138.906  139.737  139.850  139.100  138.331  138.976  139.579  139.844  144.554  141.620  139.966  139.502  139.807  138.435  139.203  138.550  138.150  138.135  138.349  138.961  138.860  138.995  138.692  139.329  138.574  138.809  138.175  138.595  138.826  138.684  138.307  137.938  138.930  138.870  138.650  139.019  139.657  138.843  139.069  138.961  139.254  139.039  139.170  139.824  139.732  138.899  139.266  139.547  140.368  140.247  141.010  141.704  143.600  145.786  148.198  152.510  157.413  164.922  172.044  178.775  185.393  190.027  192.724  195.045  195.122  194.535  191.895  189.370  183.434  178.165  173.764  169.317  164.047  161.745  156.861  156.510  154.072  153.585  152.812  152.191  152.789  152.992  152.323  151.739  152.162  152.438  151.408  151.544  149.899  149.259  148.272  147.995  147.549  147.490  150.155  150.895  151.486  152.877  154.066  156.066  157.254  158.255  158.679  158.488  158.945  157.796  156.457  154.595  153.845  151.196  149.222  147.630  146.491  145.529  144.642  144.101  143.759  144.484  144.078  143.651  144.197  144.261  144.474  143.692  142.541  142.719  142.396  141.825  141.122  141.805  140.724  140.300  140.585  141.208  139.695  139.945  140.391  140.116  140.258  140.263  140.015  140.587  141.056  140.073  140.790  140.969  140.491  140.513  139.853  140.101  140.456  140.653  141.211 
DATE 2017:074:10:38:21 obsn  23 az  49 el 30 freq_MHz  1420.4000 Tsys 127.050 Tant 19.611 vlsr  -16.57 glat -0.022 glon 90.118 azoff 0.00 eloff 0.00 source G90.0 
Fstart 1419.397 fstop 1421.403 spacing 0.009375 bw    2.400 fbw    2.000 MHz nfreq 256 nsam 5242880 npoint 214 integ     7 sigma    0.513 bsw 0
Spectrum      6 integration periods
 138.516  139.876  138.199  139.862  139.312  139.757  139.629  139.615  139.491  139.216  140.245  139.387  140.291  139.192  139.873  139.732  139.011  138.755  139.412  138.777  138.615  139.604  139.767  139.142  139.231  139.865  139.179  139.641  140.113  138.731  139.118  138.223  139.302  139.817  139.917  138.997  139.698  139.570  139.601  139.712  139.632  138.525  138.669  137.480  138.998  138.405  138.239  139.036  138.112  137.965  139.800  138.921  138.632  138.860  139.468  139.045  139.302  139.269  138.081  139.446  137.861  139.003  140.811  140.091  139.556  139.804  139.063  138.662  139.854  145.943  146.191  144.367  139.831  138.364  138.848  138.293  139.847  138.537  138.649  139.322  137.538  140.066  138.895  139.405  139.995  138.935  138.725  138.765  138.076  138.277  139.327  138.032  139.622  138.611  137.936  138.096  138.606  138.881  138.684  138.813  138.817  138.476  138.826  139.853  139.268  138.735  138.719  139.368  138.884  139.488  140.124  140.572  141.668  144.212  146.143  148.256  152.440  160.031  170.246  178.593  185.343  190.849  194.100  195.386  198.691  197.230  198.214  195.646  193.632  186.110  180.463  175.453  168.297  164.059  161.455  157.783  154.823  154.687  152.840  151.929  151.562  151.802  152.378  153.386  153.107  153.244  154.142  154.550  153.710  151.970  151.943  151.779  151.915  150.966  150.182  150.933  152.596  154.179  155.116  156.841  158.160  158.054  160.097  160.611  158.946  157.151  156.645  155.904  154.902  155.208  154.215  149.711  148.586  146.799  146.512  144.727  144.664  143.716  144.730  144.525  145.095  143.703  142.822  143.250  141.487  141.087  141.607  140.886  141.052  140.359  140.689  138.991  139.837  139.216  140.105  139.217  139.974  139.068  137.789  138.667  139.581  140.051  139.922  139.025  139.598  140.133  139.746  138.753  138.392  138.733  138.548  138.598  139.631  139.154 
DATE 2017:074:10:38:34 obsn  24 az  49 el 30 freq_MHz  1420.4000 Tsys 127.050 Tant 19.703 vlsr  -16.57 glat -0.022 glon 90.118 azoff 0.00 eloff 0.00 source G90.0 
Fstart 1419.397 fstop 1421.403 spacing 0.009375 bw    2.400 fbw    2.000 MHz nfreq 256 nsam 5242880 npoint 214 integ    17 sigma    0.314 bsw 0
Spectrum     16 integration periods
 139.584  139.541  138.626  139.471  139.339  139.722  139.982  139.762  139.727  138.925  139.758  139.170  139.039  139.059  139.375  139.533  139.078  138.736  139.186  139.254  138.475  138.922  139.810  138.882  139.469  139.083  138.998  139.387  139.987  138.701  138.964  138.447  138.847  139.445  139.531  138.786  138.695  138.951  138.945  138.677  138.992  138.553  138.965  138.434  139.089  138.755  138.628  139.155  138.460  138.627  138.942  138.282  138.712  138.700  138.906  138.959  139.196  139.531  138.637  139.393  138.219  139.298  139.860  139.326  139.517  139.291  139.227  139.034  139.653  145.853  145.528  143.689  139.246  138.689  138.965  138.946  139.438  138.631  138.563  139.590  138.265  139.151  138.954  138.991  139.354  138.561  139.238  138.724  138.436  138.650  139.154  138.872  138.798  138.589  138.262  138.311  138.280  138.667  138.402  138.627  138.514  138.722  138.989  140.068  139.293  138.476  138.782  140.014  139.571  139.618  139.652  140.079  142.057  143.759  145.199  148.167  152.922  160.700  171.230  180.491  186.469  192.030  194.235  197.000  198.967  198.698  199.210  196.164  193.492  187.070  180.667  175.171  168.670  163.786  160.706  157.090  154.948  154.140  152.721  151.621  152.166  151.779  152.431  153.120  153.161  153.338  153.536  154.618  154.302  153.193  152.855  152.126  152.068  150.589  150.203  151.252  152.730  153.592  154.951  156.658  158.562  159.195  160.089  160.287  158.458  156.733  156.293  155.585  155.470  155.522  154.277  151.225  149.127  147.494  146.783  145.597  144.602  144.278  144.102  144.613  143.969  143.765  142.401  142.316  140.731  140.641  141.013  139.895  140.330  139.771  139.713  139.264  139.551  139.303  139.284  138.708  139.331  139.186  138.522  138.887  138.594  139.616  138.654  139.219  138.997  139.575  139.538  138.674  138.724  138.440  138.628  137.929  138.695  139.005 
