DATE 2017:074:10:50:48 obsn  49 az 154 el 21 freq_MHz  1420.4000 Tsys 127.050 Tant 22.916 vlsr  -40.08 glat -0.205 glon  0.117 azoff 0.00 eloff 0.00 source G0.0 
Fstart 1419.397 fstop 1421.403 spacing 0.009375 bw    2.400 fbw    2.000 MHz nfreq 256 nsam 5242880 npoint 214 integ     8 sigma    0.475 bsw 0
Spectrum      7 integration periods
 167.434  168.648  168.017  168.170  167.505  167.701  167.270  168.532  168.695  168.268  166.753  168.102  167.033  168.028  168.468  166.661  166.115  167.183  167.752  167.909  166.743  165.676  166.857  166.782  167.816  167.238  166.840  166.521  168.014  167.661  166.871  167.376  166.932  165.898  167.005  166.179  166.023  167.483  166.453  165.988  171.079  167.321  167.667  166.743  166.743  167.203  166.943  166.763  165.420  167.242  168.065  166.670  167.122  166.552  167.847  167.897  177.686  168.734  167.102  167.947  166.994  169.275  168.544  169.180  167.940  168.523  169.384  168.897  170.441  186.456  188.768  177.052  167.904  169.275  167.733  168.412  167.465  167.425  167.291  167.632  167.375  167.705  167.594  167.960  168.991  167.614  167.827  170.595  168.479  169.657  169.222  168.377  167.962  167.561  168.162  169.095  170.030  169.436  169.244  168.425  170.012  168.891  168.682  176.439  171.418  171.268  169.883  169.326  169.957  170.586  170.700  169.738  169.867  169.542  170.588  171.386  173.776  173.485  175.084  174.049  175.578  176.828  180.134  181.432  184.869  189.713  196.193  201.202  207.393  212.487  209.833  207.140  211.850  222.348  230.407  213.201  204.471  197.408  192.154  188.568  185.601  183.704  182.508  178.450  177.165  177.375  177.581  174.643  173.648  173.811  174.069  171.606  170.786  170.617  171.336  173.611  171.875  171.282  173.017  170.558  171.118  169.961  169.945  169.582  169.637  170.788  170.676  171.319  169.864  171.516  170.147  170.171  169.610  170.804  170.974  169.522  170.023  170.620  170.912  171.056  171.553  175.277  171.777  171.969  172.761  169.495  169.845  169.940  171.546  170.826  170.301  170.897  169.744  170.364  170.972  170.788  171.471  169.623  169.399  170.079  170.779  169.373  170.320  172.162  170.284  171.069  172.134  170.852  170.030  170.368  170.442  171.670  172.828  171.165 
DATE 2017:074:10:51:01 obsn  50 az 154 el 21 freq_MHz  1420.4000 Tsys 127.050 Tant 22.714 vlsr  -40.08 glat -0.205 glon  0.117 azoff 0.00 eloff 0.00 source G0.0 
Fstart 1419.397 fstop 1421.403 spacing 0.009375 bw    2.400 fbw    2.000 MHz nfreq 256 nsam 5242880 npoint 214 integ    19 sigma    0.305 bsw 0
Spectrum     17 integration periods
 153.564  153.765  153.834  154.171  153.920  153.581  153.755  154.998  154.046  154.666  153.411  153.871  153.352  153.882  154.040  153.838  153.618  153.086  153.783  154.045  153.819  153.000  152.986  153.283  153.894  153.945  153.344  153.807  154.265  154.035  154.144  153.783  153.468  153.136  153.237  152.796  153.386  153.741  152.971  152.564  154.682  154.052  153.540  153.012  153.509  153.076  153.205  153.741  152.707  153.877  154.224  153.059  153.521  152.998  153.933  154.645  157.892  154.440  154.276  154.115  153.545  154.883  154.872  155.485  154.091  154.649  155.230  155.015  156.406  173.634  174.072  162.231  154.604  154.774  154.519  155.283  154.422  154.245  154.287  154.121  154.068  154.197  154.121  154.548  155.118  154.539  154.490  155.808  154.993  155.867  155.121  154.969  155.212  154.717  154.584  154.897  155.687  155.685  155.351  155.290  155.439  154.776  155.806  158.670  155.903  155.959  155.364  155.142  155.390  156.794  155.814  156.320  156.534  156.430  157.483  158.113  159.010  159.639  161.783  160.880  162.514  164.188  167.730  168.915  172.806  178.215  184.893  190.385  197.157  202.895  200.907  196.519  202.276  212.824  215.125  203.965  194.309  185.930  179.760  176.253  172.779  170.831  168.619  165.870  164.586  163.640  162.852  160.583  159.906  159.409  159.240  158.249  158.149  157.547  157.773  159.304  157.378  157.366  157.951  157.012  157.576  156.369  156.521  156.517  155.940  157.283  156.263  157.045  156.498  156.835  156.371  156.322  156.287  157.275  156.663  155.984  155.832  156.461  156.318  156.367  156.302  158.083  157.407  156.831  157.089  155.994  156.092  155.936  156.302  156.018  156.212  156.795  156.163  156.200  156.863  156.425  156.236  155.763  155.683  156.410  156.854  155.474  155.958  157.552  156.131  157.484  157.527  157.142  156.342  156.382  156.500  156.579  158.100  157.251 
DATE 2017:074:10:51:25 obsn  51 az 145 el 26 freq_MHz  1420.4000 Tsys 127.050 Tant 23.012 vlsr  -42.34 glat -0.205 glon 10.118 azoff 0.00 eloff 0.00 source G10.0 
Fstart 1419.397 fstop 1421.403 spacing 0.009375 bw    2.400 fbw    2.000 MHz nfreq 256 nsam 5242880 npoint 214 integ     1 sigma    1.256 bsw 0
Spectrum      1 integration periods
 147.237  142.740  142.664  142.066  142.796  144.383  145.845  144.051  143.907  143.139  142.104  142.573  146.434  143.115  144.733  144.904  144.580  143.382  143.719  145.400  145.137  143.763  145.217  143.289  143.718  144.769  144.773  144.009  144.616  142.174  145.282  146.488  144.846  147.655  146.557  142.323  142.073  144.247  146.316  146.165  143.283  142.963  145.243  143.742  143.178  140.992  144.736  142.446  142.917  143.036  142.955  146.668  143.410  146.604  145.954  145.762  144.751  141.952  146.283  147.967  145.030  146.263  145.540  145.803  141.762  143.973  144.479  148.106  145.387  161.597  163.770  149.886  144.870  146.713  145.126  144.418  143.601  146.894  147.415  147.095  143.542  145.680  142.968  145.714  144.540  145.969  144.440  145.636  145.726  144.227  145.210  144.532  146.751  144.530  144.413  144.306  147.104  144.640  143.126  144.864  144.042  144.805  147.347  145.289  146.176  146.185  144.987  145.316  144.761  147.763  146.407  145.147  145.948  147.133  147.294  148.210  147.572  150.220  151.278  152.814  153.354  158.244  159.282  162.834  167.883  171.222  180.230  186.928  191.382  197.388  195.296  191.767  196.611  205.613  204.407  195.188  188.267  175.181  172.346  166.414  164.291  162.913  158.557  158.051  155.841  151.868  149.412  153.537  149.204  149.455  148.070  149.287  148.778  148.677  147.551  145.569  147.409  148.620  147.303  144.958  148.758  148.035  145.620  146.948  148.470  148.211  145.471  146.624  146.507  146.942  146.143  148.206  146.021  147.673  148.892  147.376  146.422  143.816  147.182  146.269  145.734  144.639  149.298  145.685  144.435  143.125  147.651  146.634  143.593  145.747  145.218  147.256  146.357  144.547  145.138  145.827  148.383  147.153  146.385  145.952  145.294  143.240  145.290  148.607  144.781  148.461  148.022  146.548  148.315  147.128  145.770  151.514  149.023  147.170 
DATE 2017:074:10:51:38 obsn  52 az 145 el 26 freq_MHz  1420.4000 Tsys 127.050 Tant 21.494 vlsr  -42.34 glat -0.205 glon 10.118 azoff 0.00 eloff 0.00 source G10.0 
Fstart 1419.397 fstop 1421.403 spacing 0.009375 bw    2.400 fbw    2.000 MHz nfreq 256 nsam 5242880 npoint 214 integ    12 sigma    0.379 bsw 0
Spectrum     11 integration periods
 144.304  142.560  143.018  142.924  143.196  142.697  143.823  143.477  144.361  143.393  143.253  142.803  143.854  144.108  143.159  143.782  142.875  143.056  143.823  142.738  143.403  143.620  144.385  143.432  143.676  143.997  144.095  143.711  143.602  143.166  142.749  143.937  143.705  142.924  143.868  142.609  142.473  142.856  143.510  142.915  143.122  143.096  143.751  143.284  142.462  142.972  142.900  142.650  143.514  142.963  142.825  143.596  142.370  144.319  143.215  143.556  143.524  143.510  144.184  143.030  143.563  143.019  143.298  144.623  143.776  143.396  143.130  144.606  144.597  159.867  150.584  155.268  143.940  143.927  143.665  143.520  143.659  143.450  143.856  143.431  142.923  143.214  143.506  144.131  143.709  143.257  143.341  143.950  143.373  143.322  143.893  143.974  143.689  143.957  143.328  142.961  144.138  143.605  143.580  144.416  144.652  144.799  145.099  145.524  145.852  146.655  145.974  146.517  147.610  147.795  148.290  149.068  150.006  151.277  152.036  152.848  153.966  156.306  158.432  161.197  164.593  168.330  172.169  175.974  179.426  183.750  186.973  190.787  192.460  192.925  189.332  186.240  187.419  193.234  188.044  176.498  169.326  165.604  162.857  160.752  160.804  160.048  158.537  158.197  155.561  153.896  151.969  151.476  149.748  147.627  147.020  145.789  145.420  145.185  144.524  145.860  144.174  144.519  144.140  143.281  143.394  143.412  143.031  142.845  143.365  143.413  143.125  143.103  143.385  142.951  143.193  143.017  142.451  143.481  143.516  142.865  143.170  142.577  143.524  142.945  142.684  143.400  142.746  142.924  143.134  143.195  142.800  143.226  142.932  143.616  142.778  143.160  142.544  142.438  142.922  143.633  143.603  143.817  142.691  143.438  143.100  142.722  143.042  143.604  143.035  144.741  144.610  142.799  143.058  142.637  143.041  143.757  143.503  143.777 
DATE 2017:074:10:51:52 obsn  53 az 145 el 26 freq_MHz  1420.4000 Tsys 127.050 Tant 21.630 vlsr  -42.34 glat -0.205 glon 10.118 azoff 0.00 eloff 0.00 source G10.0 
Fstart 1419.397 fstop 1421.403 spacing 0.009375 bw    2.400 fbw    2.000 MHz nfreq 256 nsam 5242880 npoint 214 integ    23 sigma    0.274 bsw 0
Spectrum     21 integration periods
 144.180  142.958  143.358  143.071  143.381  143.037  143.507  143.482  144.301  143.445  143.372  142.871  143.600  143.511  143.501  143.359  143.168  143.371  143.627  142.872  143.544  143.672  143.955  143.452  143.569  143.790  143.864  143.479  143.466  143.210  143.327  143.609  143.439  143.319  143.440  142.717  142.639  142.970  143.152  142.880  142.894  143.386  143.598  143.156  142.882  143.026  143.157  142.523  143.267  142.703  143.026  143.214  143.120  143.895  143.382  143.571  143.819  143.516  144.341  143.409  143.637  143.013  143.295  144.324  143.499  143.365  143.469  144.702  144.854  158.592  149.181  155.802  143.930  144.046  143.947  144.088  143.400  143.410  143.957  143.118  143.218  142.893  143.398  144.063  143.563  143.550  143.428  143.495  143.295  143.431  143.915  143.443  143.741  143.693  143.549  143.714  143.786  143.663  143.513  144.054  144.444  144.467  144.748  145.445  145.581  146.413  146.099  146.621  147.408  147.590  148.419  149.187  150.241  151.434  152.521  153.127  154.918  156.732  159.143  161.433  164.822  168.478  172.695  176.170  180.293  184.107  188.144  190.820  192.829  193.502  189.677  185.751  187.140  192.391  186.844  175.713  168.766  164.680  162.376  160.990  160.975  160.120  159.020  157.558  155.967  154.002  152.614  151.136  149.383  147.971  147.021  145.853  145.507  145.060  144.590  144.962  144.136  143.927  143.599  143.243  143.369  143.454  142.369  142.898  143.145  143.278  143.047  142.894  142.932  143.174  143.135  142.822  142.231  143.146  142.681  142.696  143.171  142.406  143.352  142.710  142.800  143.347  143.033  143.020  142.935  142.923  142.527  143.369  143.467  143.271  142.668  142.672  142.643  142.476  143.014  143.209  143.122  143.946  142.872  143.489  142.997  142.549  142.967  143.159  143.170  144.560  144.224  142.510  142.944  142.889  142.870  143.169  143.224  143.528 
DATE 2017:074:10:52:18 obsn  54 az 135 el 31 freq_MHz  1420.4000 Tsys 127.050 Tant 21.299 vlsr  -43.33 glat -0.200 glon 20.118 azoff 0.00 eloff 0.00 source G20.0 
Fstart 1419.397 fstop 1421.403 spacing 0.009375 bw    2.400 fbw    2.000 MHz nfreq 256 nsam 5242880 npoint 214 integ     5 sigma    0.561 bsw 0
Spectrum      5 integration periods
 142.422  142.160  142.072  141.519  143.226  142.109  141.260  142.173  142.190  142.062  141.963  141.243  142.017  142.434  141.733  142.516  142.627  143.569  141.486  141.932  141.756  143.335  143.274  141.838  142.483  143.205  142.186  142.176  142.905  141.922  141.052  141.375  141.188  141.342  141.449  141.739  142.374  141.101  142.046  142.464  142.156  142.663  141.884  142.326  142.114  140.921  140.734  142.280  142.519  141.830  142.121  140.934  141.585  141.524  144.168  141.664  141.642  142.474  141.968  141.601  142.434  142.128  143.683  144.066  142.728  141.720  142.422  144.513  145.991  160.692  145.940  148.022  144.270  143.529  143.758  146.578  143.834  144.031  144.857  145.185  145.895  143.870  144.533  145.120  146.020  145.080  144.563  144.546  144.901  145.113  144.717  145.775  145.646  145.690  144.843  144.582  147.697  146.859  146.129  146.221  145.177  145.826  145.553  146.643  147.812  148.276  148.578  149.312  147.767  149.393  149.807  151.454  150.988  152.412  153.774  154.503  158.761  158.645  163.359  165.170  168.725  172.135  175.684  181.577  183.632  183.923  184.556  187.814  185.535  184.431  181.332  180.479  184.726  188.997  189.711  181.376  169.680  158.428  157.861  155.685  153.425  153.230  152.837  152.240  151.758  150.519  150.068  151.552  151.092  150.104  149.998  150.105  150.733  149.939  146.868  147.647  145.311  146.254  145.103  143.240  142.815  142.819  143.637  143.026  142.402  141.739  142.764  142.267  142.724  142.721  141.638  141.855  142.320  142.891  142.899  142.130  141.670  143.326  142.141  141.771  141.386  141.945  143.257  141.967  143.251  142.127  143.865  142.308  142.481  142.902  143.437  142.448  143.449  142.377  143.118  142.447  144.256  143.307  141.556  141.570  143.055  142.958  143.657  143.049  143.165  143.855  143.459  143.437  142.907  142.957  143.112  143.104  142.295  142.390 
DATE 2017:074:10:52:32 obsn  55 az 135 el 31 freq_MHz  1420.4000 Tsys 127.050 Tant 21.126 vlsr  -43.33 glat -0.200 glon 20.118 azoff 0.00 eloff 0.00 source G20.0 
Fstart 1419.397 fstop 1421.403 spacing 0.009375 bw    2.400 fbw    2.000 MHz nfreq 256 nsam 5242880 npoint 214 integ    16 sigma    0.324 bsw 0
Spectrum     15 integration periods
 141.635  141.457  141.724  141.748  142.115  141.734  141.695  142.286  142.055  141.618  141.554  141.918  141.895  141.505  141.079  142.285  142.956  142.290  141.663  141.805  142.134  143.069  142.322  141.933  142.100  142.269  141.627  141.992  142.573  141.913  140.864  141.692  141.529  142.021  141.712  141.190  142.051  141.391  141.412  142.026  141.751  141.915  141.459  140.985  141.232  140.922  141.162  141.313  141.528  141.443  141.836  141.045  141.756  141.413  142.744  141.581  142.005  142.666  142.756  142.339  142.115  141.614  143.532  142.963  141.677  141.991  142.427  144.440  144.971  160.919  147.678  146.261  143.293  143.241  144.185  145.188  144.171  144.229  144.728  144.912  145.466  145.403  144.960  144.913  145.678  145.146  144.181  145.011  144.752  145.750  145.222  145.791  145.580  145.394  145.366  144.848  146.607  147.133  145.847  145.871  146.082  146.423  145.879  147.252  147.766  148.179  148.029  148.574  148.422  149.611  149.692  150.775  151.627  152.858  154.335  155.246  157.784  160.728  163.436  165.358  168.730  172.364  176.276  181.075  183.994  184.306  184.280  185.039  183.879  183.059  180.550  179.817  184.229  188.636  190.283  182.220  169.250  157.832  155.076  153.817  151.837  151.969  151.408  151.684  151.572  151.067  151.385  150.747  151.117  150.935  150.781  150.767  151.643  149.730  147.740  147.900  145.819  146.164  144.819  144.049  143.501  142.700  143.286  142.765  142.224  142.133  142.724  142.237  142.193  142.306  141.971  142.544  142.201  142.749  142.395  142.463  141.807  142.837  142.088  142.621  142.118  141.888  143.397  142.103  142.645  142.697  143.530  141.441  142.669  141.998  142.951  142.208  143.057  142.351  142.960  142.364  143.250  142.367  141.653  142.807  143.137  142.634  142.643  142.950  142.952  143.716  143.663  142.604  142.708  142.436  142.653  143.171  142.839  143.055 
DATE 2017:074:10:52:45 obsn  56 az 135 el 31 freq_MHz  1420.4000 Tsys 127.050 Tant 21.309 vlsr  -43.33 glat -0.200 glon 20.118 azoff 0.00 eloff 0.00 source G20.0 
Fstart 1419.397 fstop 1421.403 spacing 0.009375 bw    2.400 fbw    2.000 MHz nfreq 256 nsam 5242880 npoint 214 integ    27 sigma    0.251 bsw 0
Spectrum     25 integration periods
 141.712  141.549  141.594  141.949  142.034  141.845  141.925  142.185  141.930  141.902  141.611  141.697  141.997  141.893  141.431  141.739  142.866  142.569  141.943  141.691  142.104  142.351  141.750  141.980  142.109  141.950  141.545  141.987  142.493  141.850  141.074  141.565  141.360  141.890  141.779  141.126  141.726  141.512  141.445  141.638  141.574  141.796  141.223  140.798  141.185  141.089  141.059  141.279  141.236  141.294  141.889  141.319  141.550  141.489  142.666  142.007  141.943  142.450  142.369  142.200  142.251  141.959  143.395  142.965  141.729  142.031  142.770  144.283  144.733  161.229  147.766  145.662  143.356  143.629  144.441  145.068  144.567  144.580  144.814  144.717  145.779  145.264  145.039  145.482  145.816  145.433  144.769  145.482  145.128  145.518  145.382  145.709  145.779  145.819  145.511  145.111  146.722  147.076  146.130  146.341  146.108  146.390  146.403  147.483  147.929  148.661  148.017  148.627  148.733  149.770  149.796  150.968  151.729  153.135  154.543  155.581  157.864  160.780  163.580  165.833  169.068  172.750  176.505  181.173  184.329  184.922  184.834  184.440  183.713  182.923  180.356  180.078  184.753  188.281  190.610  182.691  168.967  157.866  154.919  153.395  151.689  152.270  151.406  151.436  151.403  151.060  151.458  151.148  151.890  151.367  151.072  151.136  151.599  150.063  148.501  147.907  145.961  145.866  144.463  143.959  143.630  142.693  143.255  142.822  142.359  142.343  142.304  141.941  142.083  142.327  142.050  142.696  141.787  142.817  142.194  142.736  141.729  142.485  142.090  142.608  142.268  141.891  143.782  142.494  142.742  142.751  143.379  142.590  142.758  142.237  143.230  142.246  143.037  142.871  142.865  142.490  143.348  142.571  141.814  142.778  142.691  142.829  142.966  143.289  142.839  143.482  143.548  142.436  142.554  142.736  142.577  143.233  142.961  143.184 
DATE 2017:074:10:53:12 obsn  57 az 124 el 35 freq_MHz  1420.4000 Tsys 127.050 Tant 20.879 vlsr  -42.99 glat -0.188 glon 30.118 azoff 0.00 eloff 0.00 source G30.0 
Fstart 1419.397 fstop 1421.403 spacing 0.009375 bw    2.400 fbw    2.000 MHz nfreq 256 nsam 5242880 npoint 214 integ    11 sigma    0.397 bsw 0
Spectrum     10 integration periods
 141.784  141.480  140.489  141.024  141.382  140.738  141.118  141.191  140.647  140.153  140.978  140.841  140.304  141.160  140.096  140.276  140.399  140.893  140.888  141.043  140.660  140.936  140.287  140.764  141.147  140.421  141.285  141.136  141.778  141.384  141.009  140.853  140.972  139.601  140.524  141.117  140.467  140.068  140.378  140.404  140.418  139.885  140.180  139.975  139.877  140.697  140.147  139.547  141.197  140.865  140.390  140.742  139.729  141.047  141.705  141.980  140.905  140.821  140.376  140.828  140.868  140.368  141.190  141.851  140.567  140.723  141.426  140.826  143.384  146.552  143.021  145.063  141.546  141.690  142.370  142.476  142.758  142.402  143.352  143.922  144.771  144.694  145.902  146.064  147.666  147.334  147.695  147.674  147.855  148.264  148.060  147.585  148.836  148.556  148.628  148.881  149.385  148.933  149.336  149.768  149.207  149.307  148.887  149.617  150.693  150.592  150.532  151.153  151.964  152.691  153.911  154.846  154.921  157.119  157.970  158.234  158.876  158.994  161.636  163.605  166.035  168.691  171.186  174.708  175.829  177.184  179.505  180.356  181.376  181.798  181.536  182.803  184.816  184.997  184.108  174.824  161.087  152.327  149.593  147.202  147.311  147.169  146.772  147.365  147.666  148.052  148.016  148.279  149.040  149.818  149.475  150.232  151.591  151.406  151.998  152.793  152.955  153.385  151.808  150.721  149.958  147.850  147.062  145.876  144.809  144.483  143.544  142.619  142.063  142.397  142.889  143.014  141.731  142.352  142.060  141.724  141.836  142.072  141.939  142.362  141.724  141.129  142.222  141.529  141.919  141.924  141.489  142.162  141.879  141.665  141.456  141.711  142.739  142.032  141.560  142.066  141.761  142.101  142.192  142.002  141.455  142.518  142.029  143.028  141.510  142.687  142.352  141.522  141.559  142.830  142.627  141.900  142.407  143.338 
DATE 2017:074:10:53:25 obsn  58 az 124 el 35 freq_MHz  1420.4000 Tsys 127.050 Tant 20.746 vlsr  -42.99 glat -0.188 glon 30.118 azoff 0.00 eloff 0.00 source G30.0 
Fstart 1419.397 fstop 1421.403 spacing 0.009375 bw    2.400 fbw    2.000 MHz nfreq 256 nsam 5242880 npoint 214 integ    22 sigma    0.281 bsw 0
Spectrum     20 integration periods
 141.736  140.956  140.330  140.604  140.917  140.722  141.090  141.637  140.934  140.292  141.061  140.618  140.032  140.589  140.264  140.409  140.256  141.040  141.068  140.231  140.650  140.948  140.378  140.488  140.934  140.638  141.115  140.858  141.729  141.333  141.040  141.041  140.818  140.054  140.640  140.383  140.334  140.494  140.129  140.082  140.419  140.731  140.014  140.003  139.572  139.995  140.413  139.511  140.759  140.411  140.115  140.439  140.214  140.850  141.421  141.171  140.758  140.368  140.180  140.795  140.480  140.436  140.703  141.749  140.182  140.542  140.935  141.128  143.113  145.842  145.496  145.835  141.497  141.479  141.973  142.277  142.464  142.431  143.523  144.148  144.783  145.056  145.961  146.734  147.448  147.505  147.725  147.861  148.197  148.861  148.436  148.061  149.054  148.948  149.549  149.477  149.586  149.654  149.446  150.178  148.951  149.228  149.672  150.276  150.707  150.932  151.192  152.097  152.286  153.194  153.830  155.000  155.721  157.513  158.217  158.066  158.722  159.234  161.456  163.441  166.121  168.124  171.527  174.090  175.718  177.154  178.598  180.180  180.896  182.146  181.776  182.782  184.441  185.320  182.795  174.231  161.136  152.286  149.094  146.827  146.904  146.337  146.556  146.904  147.139  147.961  148.038  148.305  148.871  149.710  149.739  150.730  151.752  151.533  152.208  153.216  153.719  153.316  153.029  151.562  150.414  148.333  147.206  145.839  145.041  144.658  143.631  142.974  142.362  142.476  143.059  142.650  141.898  142.429  141.838  141.665  141.657  141.707  142.305  142.560  141.634  141.570  141.857  141.762  141.985  141.919  141.764  141.951  142.097  141.823  141.582  141.663  142.327  142.004  141.903  142.103  141.484  142.091  142.102  141.937  141.868  141.617  142.563  142.699  141.397  142.721  142.724  141.972  142.190  142.616  141.990  141.913  142.567  143.151 
DATE 2017:074:10:53:52 obsn  59 az 112 el 38 freq_MHz  1420.4000 Tsys 127.050 Tant 19.664 vlsr  -41.35 glat -0.171 glon 40.118 azoff 0.00 eloff 0.00 source G40.0 
Fstart 1419.397 fstop 1421.403 spacing 0.009375 bw    2.400 fbw    2.000 MHz nfreq 256 nsam 5242880 npoint 214 integ     4 sigma    0.628 bsw 0
Spectrum      4 integration periods
 140.699  140.097  139.456  138.876  140.254  140.680  139.119  140.319  139.925  140.114  140.850  139.827  139.908  139.647  140.515  139.032  139.518  139.495  140.253  140.060  140.936  140.312  139.450  139.341  139.902  139.342  139.968  140.770  139.494  139.403  139.661  139.250  138.954  138.761  139.357  139.616  138.959  139.214  138.778  139.082  138.995  139.115  139.894  139.667  139.973  139.806  138.741  139.736  139.381  140.098  139.907  139.571  139.114  139.433  140.282  140.139  139.323  139.938  140.219  140.326  139.229  140.447  139.852  142.184  140.307  139.977  139.235  140.475  141.434  143.496  143.712  143.241  139.770  140.453  141.417  141.216  141.441  140.496  139.551  140.824  140.924  140.205  142.139  140.958  143.171  141.994  142.839  142.349  144.102  145.270  145.459  144.027  145.486  144.937  146.224  146.653  147.749  148.649  148.366  149.420  150.280  151.182  152.252  152.863  153.931  154.646  154.276  155.950  154.478  155.920  157.000  157.044  161.163  162.039  166.424  166.474  168.734  169.710  171.632  171.079  171.866  170.995  171.974  171.520  170.850  171.759  171.907  173.565  173.773  175.551  174.965  180.319  179.891  176.108  168.580  158.481  150.473  145.884  145.657  145.440  144.439  145.141  144.455  145.327  144.883  146.326  144.900  145.055  146.530  147.595  148.619  149.064  150.565  149.304  150.264  149.505  149.885  149.929  150.396  150.365  152.771  152.694  151.946  152.313  151.426  149.195  147.507  146.486  145.013  145.024  144.705  143.262  141.711  141.984  140.782  141.424  142.331  141.529  141.770  140.239  141.580  141.437  140.714  139.651  141.593  141.465  141.659  141.946  141.430  141.257  141.454  141.849  139.588  140.301  139.950  140.823  140.732  141.542  140.807  141.610  141.124  140.425  141.707  142.302  140.920  141.061  140.559  141.153  140.220  141.447  141.338  141.602  141.249  140.804 
DATE 2017:074:10:54:13 obsn  60 az 113 el 38 freq_MHz  1420.4000 Tsys 127.050 Tant 19.842 vlsr  -41.35 glat -0.171 glon 40.118 azoff 0.00 eloff 0.00 source G40.0 
Fstart 1419.397 fstop 1421.403 spacing 0.009375 bw    2.400 fbw    2.000 MHz nfreq 256 nsam 5242880 npoint 214 integ    15 sigma    0.336 bsw 0
Spectrum     14 integration periods
 140.317  139.722  139.954  139.424  139.717  140.270  139.270  139.640  139.786  139.744  140.585  139.588  139.739  139.604  140.423  139.889  139.920  139.863  139.815  140.051  139.863  139.846  139.680  139.535  140.028  139.744  139.992  139.797  140.027  139.432  139.790  139.403  139.796  139.238  139.507  139.168  138.460  138.855  139.560  139.283  139.168  139.074  139.371  139.070  139.104  139.355  139.080  139.564  139.099  139.151  138.880  139.417  139.053  138.933  140.704  140.355  139.063  139.896  139.646  139.930  139.486  139.542  139.802  141.346  139.494  139.678  140.045  140.142  140.882  142.590  143.337  142.832  139.549  139.981  140.200  140.034  140.488  139.908  139.714  140.147  140.511  139.988  141.095  140.955  141.759  141.384  142.068  142.395  142.685  143.611  144.196  144.342  145.340  145.805  145.689  146.363  147.476  148.653  149.151  149.419  150.474  150.677  151.444  152.687  153.223  154.427  154.900  155.280  155.189  156.833  157.631  158.377  160.367  162.757  165.989  168.341  170.432  172.300  172.920  173.338  173.966  173.760  173.642  171.681  170.000  170.494  170.043  171.491  171.790  173.533  175.148  179.248  179.607  174.500  167.514  156.124  149.161  145.358  144.994  144.529  144.062  143.796  143.399  143.853  143.844  144.613  144.519  144.758  146.285  146.768  147.581  148.193  148.318  148.148  148.471  148.745  148.668  149.273  150.020  150.300  152.163  152.211  152.418  152.641  152.440  150.795  148.120  146.977  146.458  145.444  144.158  142.989  142.305  142.573  141.358  141.279  141.966  141.325  140.930  140.246  141.060  140.949  141.454  140.395  140.962  141.100  141.268  141.346  141.642  140.404  140.812  140.661  139.946  140.073  139.806  140.878  141.110  140.885  141.089  140.811  141.013  140.448  140.608  141.610  140.811  141.198  141.133  140.426  140.616  140.813  140.481  141.349  141.218  141.103 
DATE 2017:074:10:54:40 obsn  61 az 100 el 40 freq_MHz  1420.4000 Tsys 127.050 Tant 18.510 vlsr  -38.46 glat -0.149 glon 50.118 azoff 0.00 eloff 0.00 source G50.0 
Fstart 1419.397 fstop 1421.403 spacing 0.009375 bw    2.400 fbw    2.000 MHz nfreq 256 nsam 5242880 npoint 214 integ     4 sigma    0.628 bsw 0
Spectrum      4 integration periods
 138.921  140.103  140.082  140.751  139.408  140.445  139.428  140.282  140.354  139.650  139.863  140.825  139.811  139.260  140.227  139.886  139.996  140.055  138.910  138.857  139.389  141.365  140.666  138.881  139.579  139.377  140.021  139.007  139.513  139.899  140.289  140.068  139.765  139.877  139.885  139.657  140.547  141.476  139.231  139.444  140.696  139.324  139.231  139.812  139.139  138.968  137.457  138.885  138.997  138.951  139.377  139.019  141.612  139.277  139.348  139.333  139.326  139.578  138.956  139.580  138.946  139.776  140.143  140.646  138.730  140.394  139.743  138.437  139.924  145.094  140.607  140.512  140.090  139.785  139.199  139.623  140.138  140.315  139.036  139.919  139.551  140.189  139.510  140.464  138.968  140.362  140.973  138.640  139.805  140.272  140.056  141.011  142.000  143.738  142.991  142.351  144.439  146.116  146.486  146.965  148.039  149.542  151.055  152.656  152.362  154.844  155.570  156.058  155.324  156.978  157.223  157.156  158.486  159.773  162.748  162.258  164.705  165.820  168.590  166.446  168.190  167.587  168.589  167.548  169.370  169.741  171.888  173.472  175.146  176.856  180.698  180.397  174.984  168.252  160.738  151.284  146.969  144.415  143.736  142.134  141.874  142.379  141.952  141.596  141.699  142.251  143.019  141.895  143.862  143.966  144.465  144.379  147.089  146.096  145.560  147.192  147.347  147.688  148.653  148.190  148.440  148.759  148.896  150.060  150.148  149.735  148.117  147.023  146.672  147.656  147.661  145.971  145.941  144.650  143.333  141.482  141.757  140.502  140.288  141.087  140.664  140.610  140.698  140.506  141.041  140.733  140.325  140.186  140.279  140.210  139.174  140.474  139.609  140.620  141.111  140.138  140.569  140.782  139.624  138.412  140.653  138.933  139.651  139.879  139.140  139.668  139.967  140.588  140.469  139.325  140.170  140.305  141.906  139.571 
DATE 2017:074:10:54:53 obsn  62 az 100 el 40 freq_MHz  1420.4000 Tsys 127.050 Tant 18.322 vlsr  -38.46 glat -0.149 glon 50.118 azoff 0.00 eloff 0.00 source G50.0 
Fstart 1419.397 fstop 1421.403 spacing 0.009375 bw    2.400 fbw    2.000 MHz nfreq 256 nsam 5242880 npoint 214 integ    15 sigma    0.336 bsw 0
Spectrum     14 integration periods
 139.420  139.102  138.938  140.369  138.824  139.603  139.269  140.328  140.018  139.886  139.686  139.535  139.146  138.811  139.170  139.838  140.002  139.710  139.118  140.038  139.446  139.754  140.050  139.575  139.086  139.254  138.756  139.042  140.438  139.097  139.807  139.374  139.241  139.539  139.222  139.155  139.485  140.006  139.261  139.022  139.088  138.545  139.145  139.335  139.108  139.239  138.847  139.274  139.146  138.784  138.714  139.336  139.434  139.449  139.814  139.084  139.536  139.069  139.325  139.342  139.541  139.351  139.763  140.571  138.303  139.487  139.387  139.549  140.878  145.169  143.715  141.171  139.929  139.556  138.982  139.249  139.703  139.150  138.257  139.185  139.012  139.320  139.402  139.257  139.771  139.608  139.721  139.008  139.447  140.278  140.192  140.364  140.936  141.604  141.717  141.907  143.068  144.679  145.829  146.925  147.847  148.557  150.594  152.203  152.825  154.358  154.809  154.956  155.347  156.226  156.488  156.549  157.819  158.039  159.350  160.984  162.009  163.219  165.055  165.148  166.583  167.112  166.874  167.157  168.321  170.061  171.937  173.548  174.877  178.404  181.044  179.771  174.379  166.833  158.010  149.717  146.006  144.309  143.614  142.939  141.722  142.025  141.983  142.234  141.985  141.796  142.647  143.223  143.423  144.006  144.361  144.394  145.195  145.609  145.808  147.296  147.210  147.133  147.672  147.795  147.815  148.078  147.616  148.309  148.002  148.298  147.461  147.396  147.063  147.615  147.278  147.121  146.134  145.483  144.019  142.328  141.945  141.096  141.023  141.178  140.750  140.499  140.931  140.264  140.216  139.777  140.068  138.553  139.850  139.620  139.851  139.679  139.029  139.160  139.619  140.028  139.566  139.946  139.610  139.086  140.148  139.164  139.706  140.231  139.051  140.248  140.378  140.124  139.972  139.462  139.385  139.559  140.107  139.673 
DATE 2017:074:10:55:06 obsn  63 az 100 el 40 freq_MHz  1420.4000 Tsys 127.050 Tant 18.283 vlsr  -38.46 glat -0.149 glon 50.118 azoff 0.00 eloff 0.00 source G50.0 
Fstart 1419.397 fstop 1421.403 spacing 0.009375 bw    2.400 fbw    2.000 MHz nfreq 256 nsam 5242880 npoint 214 integ    26 sigma    0.256 bsw 0
Spectrum     24 integration periods
 139.617  139.393  139.019  140.497  139.164  139.680  139.243  140.063  140.006  139.736  139.601  139.237  139.349  138.931  139.231  139.855  139.831  139.531  139.411  139.870  139.325  139.192  139.799  139.501  139.068  139.198  139.002  139.120  140.325  139.508  139.331  139.417  139.320  139.187  139.125  138.875  139.318  139.929  139.298  139.126  138.939  138.926  138.916  139.486  139.077  139.236  138.899  138.976  139.249  138.794  139.183  139.268  139.349  139.263  140.152  139.284  139.897  139.007  139.360  139.186  139.315  139.406  139.666  140.597  138.665  139.293  139.547  139.674  141.003  144.737  143.514  141.515  139.634  139.164  139.009  139.371  139.644  139.175  138.710  139.100  139.008  139.209  139.127  139.099  139.830  139.621  139.389  139.380  139.852  140.064  140.210  140.228  140.713  141.365  141.602  142.005  143.008  144.614  145.457  146.644  148.201  148.974  150.357  152.296  152.537  154.518  155.062  155.413  155.299  156.243  156.134  156.686  157.450  157.963  159.166  160.618  162.170  163.210  164.957  165.354  166.315  166.779  167.049  166.683  168.164  169.920  171.950  173.261  174.886  178.728  180.826  179.733  174.469  166.790  156.993  149.063  145.694  144.063  143.321  142.746  141.842  141.920  141.993  141.759  141.981  142.311  142.504  143.150  143.551  144.072  144.412  144.382  145.077  145.293  146.250  147.585  147.077  147.148  147.736  147.531  147.818  147.786  147.497  148.146  148.019  148.278  147.211  147.364  147.238  147.907  147.372  147.224  146.196  145.432  144.041  142.747  142.045  141.459  140.888  140.971  141.100  140.769  140.633  140.376  140.026  140.016  139.832  138.867  139.885  139.491  139.846  139.727  139.287  139.462  139.834  139.973  139.486  139.821  139.396  139.242  140.021  139.653  139.650  140.215  139.237  140.351  140.427  139.613  139.584  139.205  139.542  139.492  139.724  139.969 
DATE 2017:074:10:55:33 obsn  64 az  87 el 40 freq_MHz  1420.4000 Tsys 127.050 Tant 16.678 vlsr  -34.39 glat -0.122 glon 60.118 azoff 0.00 eloff 0.00 source G60.0 
Fstart 1419.397 fstop 1421.403 spacing 0.009375 bw    2.400 fbw    2.000 MHz nfreq 256 nsam 5242880 npoint 214 integ     9 sigma    0.444 bsw 0
Spectrum      8 integration periods
 139.049  138.298  138.040  138.597  138.505  138.405  138.509  139.498  139.541  137.859  139.596  138.385  137.892  138.492  138.283  137.751  137.231  138.921  138.723  138.306  139.114  138.204  138.272  138.486  138.276  138.060  139.562  138.261  138.606  137.963  138.030  138.103  137.580  137.727  138.391  138.183  138.319  137.460  138.505  138.239  138.195  138.115  139.028  137.845  138.119  137.351  137.575  138.985  138.349  138.021  137.413  137.547  137.415  137.819  137.943  137.471  138.319  138.299  138.090  137.141  137.526  138.549  137.832  139.492  138.590  138.346  138.288  139.804  139.563  152.254  150.571  140.736  138.514  139.024  136.949  137.970  138.109  137.300  137.734  137.578  137.522  138.078  137.656  137.996  138.664  138.034  137.256  138.226  137.621  138.834  137.156  137.684  138.326  138.386  138.720  138.435  138.964  140.008  138.596  140.181  140.308  141.215  141.193  143.960  144.472  145.500  146.243  146.193  147.815  149.373  150.985  152.559  153.258  155.513  157.160  156.887  159.757  159.560  159.960  161.452  161.438  164.759  165.151  166.602  168.561  175.017  181.793  185.984  185.054  180.641  174.972  167.884  159.927  155.488  151.263  147.977  145.536  144.952  143.692  143.309  142.534  141.529  141.431  141.107  141.433  140.242  140.806  141.393  140.388  140.630  140.777  142.287  143.085  143.375  145.289  146.473  146.737  149.083  149.990  151.014  149.801  149.501  150.845  150.599  150.337  149.485  149.782  149.746  149.036  148.347  148.267  147.597  147.125  145.682  144.510  143.946  144.229  144.034  143.497  143.449  142.885  141.523  141.783  139.864  139.916  139.466  139.151  139.101  138.609  139.001  138.330  137.584  138.560  138.809  138.572  138.123  138.555  139.248  137.057  138.838  139.088  137.898  138.107  138.134  138.205  140.104  138.564  137.963  138.183  138.309  138.310  138.632  138.740  138.809 
DATE 2017:074:10:55:46 obsn  65 az  87 el 40 freq_MHz  1420.4000 Tsys 127.050 Tant 17.005 vlsr  -34.39 glat -0.122 glon 60.118 azoff 0.00 eloff 0.00 source G60.0 
Fstart 1419.397 fstop 1421.403 spacing 0.009375 bw    2.400 fbw    2.000 MHz nfreq 256 nsam 5242880 npoint 214 integ    20 sigma    0.296 bsw 0
Spectrum     18 integration periods
 139.005  138.081  137.907  138.599  138.521  138.611  138.245  138.701  138.821  138.348  139.055  138.549  138.497  138.406  137.898  138.118  137.741  138.292  138.299  138.036  138.891  138.046  138.036  138.690  138.550  138.143  139.184  138.231  138.549  137.924  137.849  137.796  137.764  137.663  138.257  138.062  137.884  137.607  138.001  137.905  137.596  138.001  138.288  137.518  137.865  137.558  137.883  137.980  137.959  138.078  137.178  137.606  137.572  137.330  137.951  137.774  138.121  137.893  138.126  137.436  137.623  137.526  137.612  139.236  137.868  137.834  138.350  139.493  139.581  153.028  148.620  140.920  138.390  138.430  137.204  137.965  137.965  137.548  137.228  137.515  137.541  137.867  137.658  138.036  138.000  137.999  137.331  138.195  137.693  138.283  137.656  137.926  137.792  137.863  138.443  137.946  138.631  139.209  138.874  139.412  139.781  140.700  141.320  143.125  143.932  144.699  145.647  145.283  147.468  148.976  150.852  152.274  153.662  155.455  156.496  157.316  158.921  159.798  159.965  161.668  161.800  163.918  165.395  166.830  169.160  175.238  182.574  186.423  185.706  180.587  173.684  166.466  159.280  154.631  151.166  147.861  145.397  144.898  144.046  143.516  142.626  142.028  141.753  141.121  141.144  140.282  141.269  140.739  140.611  140.674  141.000  141.821  143.002  143.336  145.426  146.762  146.922  149.255  149.968  150.685  149.999  150.265  150.918  150.944  150.834  150.015  149.814  149.474  149.531  149.133  148.888  147.684  147.352  145.651  145.008  144.219  144.087  144.484  143.865  143.713  143.127  142.096  141.937  140.435  140.511  139.743  139.212  138.534  138.455  138.590  138.197  137.215  138.484  138.400  138.085  138.071  138.482  138.629  137.545  138.325  139.218  138.135  138.182  138.203  138.289  139.765  139.074  138.220  137.598  138.196  138.246  137.923  138.393  139.126 
DATE 2017:074:10:56:13 obsn  66 az  74 el 39 freq_MHz  1420.4000 Tsys 127.050 Tant 16.831 vlsr  -29.28 glat -0.091 glon 70.118 azoff 0.00 eloff 0.00 source G70.0 
Fstart 1419.397 fstop 1421.403 spacing 0.009375 bw    2.400 fbw    2.000 MHz nfreq 256 nsam 5242880 npoint 214 integ     2 sigma    0.888 bsw 0
Spectrum      2 integration periods
 137.056  138.367  139.413  136.943  136.628  137.879  138.605  137.626  136.684  139.158  140.025  139.074  137.367  138.606  139.213  140.010  140.529  136.459  138.257  138.406  139.648  138.365  137.544  140.585  140.196  138.586  137.801  138.916  138.688  137.019  137.882  138.002  138.110  139.082  136.191  137.486  137.946  136.215  138.434  136.663  135.673  137.659  137.133  136.282  138.311  137.638  135.357  137.467  135.114  136.941  138.007  138.955  137.800  138.915  136.384  138.799  137.348  139.017  138.532  138.536  137.668  139.732  137.431  139.261  138.831  136.771  137.489  138.561  139.898  156.753  154.136  139.496  138.787  138.379  136.721  137.283  138.636  138.936  136.828  138.879  137.367  137.607  137.833  136.928  138.160  138.105  138.110  138.602  137.459  137.783  139.060  138.991  137.065  136.117  137.341  139.233  138.105  136.779  137.751  139.354  136.569  140.028  138.575  139.548  139.568  140.987  141.122  141.158  142.598  144.994  145.788  147.940  148.260  148.639  152.082  154.411  157.260  156.606  159.226  163.106  163.682  166.284  171.850  174.462  177.126  180.878  182.307  184.831  182.241  177.869  170.869  163.542  158.801  155.484  152.423  150.171  148.252  147.175  147.083  146.039  144.205  142.462  144.708  142.468  141.863  140.570  140.311  142.402  140.827  140.955  141.810  142.018  143.982  143.333  144.983  145.545  145.736  148.188  147.801  152.482  151.595  151.693  153.023  152.811  154.638  153.745  151.317  151.905  150.572  148.165  147.257  147.859  145.853  146.514  145.588  144.094  144.071  144.067  142.677  143.496  143.048  142.171  141.479  143.344  142.002  142.570  142.111  140.925  141.021  139.148  139.389  137.292  137.985  138.989  139.143  138.334  138.351  135.838  139.420  139.151  137.316  137.287  138.123  138.148  140.014  139.553  138.405  137.528  137.739  136.715  139.517  137.867  138.931  138.298 
DATE 2017:074:10:56:26 obsn  67 az  74 el 39 freq_MHz  1420.4000 Tsys 127.050 Tant 16.852 vlsr  -29.28 glat -0.091 glon 70.118 azoff 0.00 eloff 0.00 source G70.0 
Fstart 1419.397 fstop 1421.403 spacing 0.009375 bw    2.400 fbw    2.000 MHz nfreq 256 nsam 5242880 npoint 214 integ    13 sigma    0.362 bsw 0
Spectrum     12 integration periods
 137.787  137.724  137.876  138.366  137.352  138.543  137.997  138.728  138.243  138.231  138.369  138.310  138.273  138.159  138.457  138.317  139.173  137.374  138.222  138.073  137.985  138.820  138.083  138.361  138.794  137.995  137.647  137.844  139.247  138.057  137.633  138.129  137.766  137.761  137.589  137.724  137.437  138.246  137.765  137.612  137.476  138.562  137.214  137.517  137.369  137.755  136.857  137.073  137.045  137.322  138.626  137.484  137.449  138.131  137.819  138.063  138.285  138.622  138.486  137.798  137.805  138.810  138.529  140.744  138.194  137.964  138.583  138.909  140.298  155.229  147.462  140.191  138.576  138.188  137.330  138.676  137.618  137.964  137.481  137.648  138.084  137.649  137.209  137.343  139.227  138.080  137.645  138.535  138.111  138.011  137.909  138.228  137.861  138.185  137.438  138.276  138.913  138.323  138.096  138.697  138.250  138.574  138.104  138.682  138.626  139.651  139.128  139.959  139.811  141.204  141.812  142.943  143.558  145.368  148.235  150.500  153.774  156.041  161.347  163.107  166.910  170.242  174.339  177.454  180.919  182.460  184.359  182.572  177.247  172.786  167.894  163.187  158.667  156.019  153.151  151.827  149.945  148.978  147.962  147.535  145.964  145.104  144.848  143.705  142.937  142.307  142.446  142.476  142.303  141.959  142.099  142.866  144.349  143.800  144.682  146.988  146.321  147.376  149.343  151.890  154.207  154.332  155.556  156.338  155.732  155.043  153.204  151.811  150.623  148.237  147.126  146.555  145.409  146.249  145.239  144.532  144.290  143.750  143.665  144.396  143.576  143.185  144.472  143.423  142.931  141.693  141.322  140.046  139.512  139.013  138.970  138.887  138.614  138.656  139.166  139.216  139.149  137.988  138.243  138.795  138.759  138.548  138.396  138.777  138.877  139.557  139.137  138.495  138.201  138.596  139.030  138.441  138.873  139.261 
DATE 2017:074:10:56:39 obsn  68 az  74 el 39 freq_MHz  1420.4000 Tsys 127.050 Tant 16.993 vlsr  -29.28 glat -0.091 glon 70.118 azoff 0.00 eloff 0.00 source G70.0 
Fstart 1419.397 fstop 1421.403 spacing 0.009375 bw    2.400 fbw    2.000 MHz nfreq 256 nsam 5242880 npoint 214 integ    24 sigma    0.268 bsw 0
Spectrum     22 integration periods
 137.945  138.163  137.960  138.799  137.922  138.767  137.986  138.745  138.081  137.968  138.507  138.387  137.942  137.882  138.337  138.542  139.404  137.742  137.897  137.983  138.659  138.670  138.235  138.256  138.573  138.156  137.819  137.781  139.286  138.209  137.634  137.807  137.920  137.681  137.425  137.736  137.538  138.312  137.924  137.509  137.927  138.959  137.485  137.452  137.850  137.543  137.302  137.461  136.977  137.451  138.912  137.606  137.485  137.950  138.141  137.940  138.088  138.237  138.074  138.056  138.176  138.515  138.563  140.469  138.058  137.925  138.792  138.298  139.977  155.778  145.774  140.541  138.360  137.994  137.649  138.597  137.469  138.165  137.841  137.793  137.865  137.500  137.518  137.625  139.056  138.320  137.720  138.293  137.996  137.982  137.839  137.877  138.144  138.252  137.797  138.335  139.243  138.466  137.929  138.487  138.129  138.117  138.141  138.519  138.575  139.084  138.825  139.595  139.374  140.952  141.404  142.564  143.254  145.094  147.510  149.873  153.163  155.937  161.298  163.318  166.996  170.884  175.113  177.624  181.149  183.343  184.650  182.200  177.149  172.513  167.079  163.309  158.608  155.427  153.122  151.780  150.364  148.931  148.049  148.008  146.098  145.465  144.619  143.965  142.804  142.628  142.285  142.334  142.599  142.040  142.232  142.836  144.021  144.147  144.965  146.578  146.783  147.423  149.382  151.568  154.409  154.793  156.097  156.647  156.322  155.745  153.924  152.073  150.848  148.693  146.858  146.676  145.559  146.670  145.366  144.614  144.440  143.512  143.517  144.375  143.693  143.467  144.618  143.518  142.860  142.045  141.041  139.851  139.151  139.178  139.420  138.844  138.192  138.576  139.384  139.022  138.767  137.932  138.243  138.570  138.708  138.392  138.503  138.995  138.624  138.923  139.285  138.496  138.400  138.514  138.831  138.540  138.740  138.978 
DATE 2017:074:10:57:06 obsn  69 az  62 el 37 freq_MHz  1420.4000 Tsys 127.050 Tant 20.233 vlsr  -23.28 glat -0.057 glon 80.118 azoff 0.00 eloff 0.00 source G80.0 
Fstart 1419.397 fstop 1421.403 spacing 0.009375 bw    2.400 fbw    2.000 MHz nfreq 256 nsam 5242880 npoint 214 integ     7 sigma    0.513 bsw 0
Spectrum      6 integration periods
 139.611  139.204  139.133  138.507  139.850  140.053  139.810  139.301  138.718  140.018  138.561  139.999  139.892  139.721  139.578  138.634  139.962  138.676  139.866  139.620  140.336  139.957  139.560  140.076  139.028  139.579  139.858  139.988  140.037  138.803  139.442  139.417  140.476  139.181  140.003  139.486  138.973  138.948  139.324  139.297  139.609  138.037  138.664  139.516  138.554  138.623  139.378  139.182  138.711  139.574  139.301  139.294  138.432  138.776  139.757  139.248  138.984  139.236  139.095  139.331  139.330  139.211  139.385  141.282  139.542  139.771  140.377  140.555  141.865  146.268  144.729  149.000  139.371  139.510  139.483  139.324  139.198  139.697  139.195  138.659  139.826  140.371  140.415  140.947  138.860  139.754  139.583  139.793  140.103  140.795  139.359  139.799  141.352  139.611  140.051  139.725  139.589  139.826  139.284  139.264  140.076  139.628  140.816  141.653  139.648  140.262  140.335  139.729  140.533  140.912  141.513  141.071  142.762  145.068  146.239  148.293  152.035  156.396  162.409  169.073  175.516  181.320  186.569  189.448  192.094  192.931  192.902  190.137  185.135  181.343  176.408  171.169  166.645  163.511  160.732  157.626  156.284  154.437  153.600  152.371  152.317  152.086  151.065  152.655  151.145  151.712  151.107  151.367  150.600  148.995  149.316  149.098  147.831  148.267  147.492  149.611  150.869  151.013  152.059  154.936  156.289  158.969  157.140  158.951  159.056  159.787  157.535  157.138  155.249  153.797  152.634  148.084  148.600  147.630  147.057  145.780  145.004  144.893  145.540  145.267  145.607  145.540  145.829  144.442  144.921  144.054  144.358  142.011  142.314  142.267  142.143  141.569  140.644  140.375  140.362  141.399  142.224  141.482  141.974  140.747  140.650  142.057  140.516  141.857  141.181  144.000  143.621  141.732  141.798  141.890  141.847  141.157  141.462  141.932 
DATE 2017:074:10:57:19 obsn  70 az  62 el 37 freq_MHz  1420.4000 Tsys 127.050 Tant 20.120 vlsr  -23.28 glat -0.057 glon 80.118 azoff 0.00 eloff 0.00 source G80.0 
Fstart 1419.397 fstop 1421.403 spacing 0.009375 bw    2.400 fbw    2.000 MHz nfreq 256 nsam 5242880 npoint 214 integ    17 sigma    0.314 bsw 0
Spectrum     16 integration periods
 140.021  139.360  139.614  139.203  139.306  139.574  139.379  139.652  139.297  139.871  139.760  139.865  139.947  139.614  139.391  138.789  139.243  139.348  139.868  139.890  139.952  139.500  139.794  139.517  139.469  139.632  139.837  140.529  140.169  139.526  139.714  139.608  140.063  139.723  139.631  139.725  139.293  139.593  139.257  139.947  139.971  138.633  138.843  139.507  138.709  138.820  139.256  139.164  139.247  139.746  139.386  139.314  139.153  139.199  139.222  139.417  139.650  139.411  139.720  139.427  139.715  139.401  139.912  141.079  139.600  139.901  139.929  140.335  141.061  143.306  145.812  149.753  140.006  139.872  139.511  139.391  139.812  139.331  139.370  139.639  140.138  139.657  140.009  140.670  139.718  139.863  140.068  140.118  140.095  141.033  139.611  139.830  140.192  139.851  140.174  139.778  139.730  140.068  139.359  139.221  139.788  139.686  139.867  140.775  139.986  140.046  140.309  139.966  140.549  141.285  141.791  142.393  142.699  144.718  146.164  148.231  151.649  156.511  163.156  169.819  177.186  182.866  188.385  190.994  193.235  194.005  192.866  191.190  186.404  182.664  177.048  172.286  167.585  164.425  161.663  158.383  155.883  154.745  153.559  152.379  152.507  152.076  152.336  153.133  152.872  152.222  152.135  151.493  150.868  150.300  149.577  149.248  148.460  148.770  148.942  150.287  151.278  151.553  153.169  154.591  156.075  158.353  158.154  159.824  159.337  159.013  158.336  156.938  155.650  153.416  151.550  148.691  148.557  147.341  146.486  145.560  145.509  145.440  144.854  145.064  145.427  145.594  145.630  145.575  144.750  144.430  143.742  143.451  142.995  142.415  142.706  141.748  140.836  141.350  141.402  141.025  142.228  141.431  141.964  141.705  141.639  141.792  141.307  141.975  141.660  144.605  144.007  142.272  142.095  142.238  142.166  141.937  142.002  142.541 
DATE 2017:074:10:57:32 obsn  71 az  62 el 37 freq_MHz  1420.4000 Tsys 127.050 Tant 20.100 vlsr  -23.28 glat -0.057 glon 80.118 azoff 0.00 eloff 0.00 source G80.0 
Fstart 1419.397 fstop 1421.403 spacing 0.009375 bw    2.400 fbw    2.000 MHz nfreq 256 nsam 5242880 npoint 214 integ    28 sigma    0.246 bsw 0
Spectrum     26 integration periods
 139.776  139.552  139.550  139.256  139.606  139.599  139.680  139.576  139.455  139.685  139.738  139.818  139.951  139.608  139.691  138.969  139.246  139.462  139.845  139.913  140.145  139.898  139.623  139.835  139.606  139.682  139.779  140.330  139.772  139.661  139.766  139.596  139.965  139.495  139.611  139.945  139.398  139.451  139.322  139.743  139.829  138.784  139.113  139.318  138.842  139.099  139.236  139.015  139.108  139.428  139.480  139.546  139.236  139.474  139.579  139.147  139.773  139.479  139.715  139.380  139.841  139.622  139.623  141.156  139.745  139.827  139.945  140.239  140.770  142.737  144.971  149.577  139.988  139.907  139.667  139.588  140.149  139.245  139.740  139.677  140.128  139.676  140.091  140.543  139.979  139.937  140.180  140.240  140.020  141.046  139.821  140.077  140.170  140.104  140.202  140.561  139.747  139.892  139.774  139.535  139.804  139.857  139.835  140.620  140.268  139.986  140.245  140.173  140.434  141.263  141.503  142.139  143.009  144.724  146.329  148.163  151.856  156.600  163.283  169.858  177.078  183.371  188.569  191.773  193.930  194.244  193.718  191.472  187.124  183.051  177.309  172.622  167.912  164.880  161.994  158.714  156.224  155.289  153.618  152.915  152.581  152.382  152.620  153.185  153.205  152.245  152.307  151.680  150.969  150.066  149.724  149.592  148.522  148.716  149.040  150.325  151.322  152.052  153.494  154.719  155.885  157.904  158.487  159.624  159.710  159.086  158.335  156.940  155.709  153.628  151.668  149.856  148.672  147.320  146.173  145.716  145.296  145.426  144.840  145.287  145.749  145.907  145.319  145.441  144.716  144.498  144.127  143.437  143.183  142.506  142.656  141.761  141.158  141.389  141.383  141.173  141.798  141.806  141.805  141.910  141.880  141.695  141.451  141.868  141.637  144.445  144.068  142.369  141.840  142.127  141.921  141.827  141.949  142.325 
DATE 2017:074:10:57:59 obsn  72 az  51 el 33 freq_MHz  1420.4000 Tsys 127.050 Tant 20.631 vlsr  -16.58 glat -0.022 glon 90.118 azoff 0.00 eloff 0.00 source G90.0 
Fstart 1419.397 fstop 1421.403 spacing 0.009375 bw    2.400 fbw    2.000 MHz nfreq 256 nsam 5242880 npoint 214 integ    11 sigma    0.397 bsw 0
Spectrum     10 integration periods
 140.101  139.903  139.811  139.866  139.659  140.063  139.182  139.449  139.658  140.440  140.281  139.968  139.802  139.757  139.798  139.197  139.845  140.392  138.849  139.845  139.678  139.473  139.312  140.221  139.849  139.581  139.076  140.486  140.507  139.687  139.097  139.166  139.526  139.118  140.091  139.815  138.720  138.856  138.475  138.820  139.256  139.318  139.389  138.505  138.538  138.669  138.782  138.609  138.971  139.250  139.824  139.839  139.151  139.451  139.361  139.434  139.195  139.718  139.401  138.624  139.412  139.318  139.509  140.595  138.798  138.882  138.755  139.436  140.346  142.182  143.753  144.237  139.872  139.450  139.495  139.958  140.209  139.172  138.123  138.902  138.944  140.197  138.974  139.312  139.626  139.184  138.883  138.864  138.851  138.901  138.605  139.452  139.237  139.727  139.136  138.928  138.861  139.223  138.918  138.747  139.182  138.641  138.863  139.043  139.730  138.847  138.731  139.529  139.458  139.720  139.813  140.639  141.855  143.537  146.152  149.152  153.773  162.257  171.842  181.131  187.540  193.036  196.072  199.187  201.067  201.655  200.935  199.450  196.655  189.500  182.280  176.715  171.556  165.377  161.583  158.287  155.710  153.906  153.198  152.823  152.823  153.248  154.746  154.891  156.054  155.887  156.206  156.473  156.000  156.275  154.301  154.012  151.692  151.874  151.080  153.167  153.041  154.842  156.819  158.658  160.736  161.075  162.446  162.403  160.383  160.000  158.756  158.070  157.234  157.433  155.273  153.519  150.961  148.741  147.074  147.155  144.529  145.356  144.033  143.727  144.352  143.765  142.009  142.251  141.952  141.410  140.783  140.797  140.707  140.037  139.947  139.953  139.850  139.849  139.884  139.712  139.568  139.523  139.421  139.622  139.529  139.183  139.618  139.130  139.295  140.767  140.445  139.726  138.951  139.650  138.350  138.462  138.949  140.042 
DATE 2017:074:10:58:12 obsn  73 az  51 el 33 freq_MHz  1420.4000 Tsys 127.050 Tant 20.461 vlsr  -16.58 glat -0.022 glon 90.118 azoff 0.00 eloff 0.00 source G90.0 
Fstart 1419.397 fstop 1421.403 spacing 0.009375 bw    2.400 fbw    2.000 MHz nfreq 256 nsam 5242880 npoint 214 integ    22 sigma    0.281 bsw 0
Spectrum     20 integration periods
 140.124  139.582  139.573  139.570  139.333  140.184  139.426  139.772  140.231  139.918  139.779  140.030  139.788  139.769  140.001  139.041  139.718  139.610  139.174  139.997  139.543  139.732  139.761  139.626  139.799  139.364  139.688  140.158  140.425  139.364  139.024  139.209  139.049  139.554  139.598  139.636  138.789  139.289  138.983  138.857  139.110  139.021  139.132  138.317  138.803  138.638  139.254  138.796  138.951  139.189  139.750  139.314  138.916  139.245  139.225  139.528  139.310  139.489  139.279  138.710  139.401  139.366  139.526  140.016  138.915  139.036  139.024  139.398  140.311  141.933  142.966  143.926  139.966  139.465  139.157  140.067  139.886  138.797  138.043  138.699  138.837  139.615  139.226  139.381  139.516  139.182  138.879  139.123  139.135  139.183  138.721  138.704  139.428  139.613  138.949  139.191  138.539  139.025  138.868  138.892  139.275  138.819  138.735  139.383  139.602  138.819  138.966  138.945  139.677  139.785  140.163  140.909  142.548  143.702  146.212  149.309  153.775  162.381  172.518  181.708  188.090  193.569  197.251  199.213  200.911  202.053  201.492  199.424  196.253  189.985  182.773  176.882  171.072  165.117  161.778  158.393  156.058  154.292  152.528  152.736  152.869  153.365  155.018  155.580  155.899  156.423  156.426  156.956  156.390  156.553  154.517  154.458  152.399  152.112  151.074  152.901  153.540  154.801  157.317  159.012  160.904  161.336  162.831  162.439  160.864  159.958  158.942  157.825  157.379  156.875  155.382  153.445  151.211  148.485  147.208  146.670  144.494  144.928  144.215  143.842  144.408  143.711  142.277  142.125  141.880  141.131  140.463  140.062  140.321  140.132  140.020  139.635  139.446  139.622  139.685  139.407  139.817  139.203  138.986  139.509  139.596  139.363  139.176  139.452  139.389  140.363  140.416  139.213  139.352  139.576  138.786  139.017  139.050  140.002 
