DATE 2017:074:10:40:49 obsn  25 az 152 el 20 freq_MHz  1420.4000 Tsys 127.050 Tant 22.471 vlsr  -40.08 glat -0.205 glon  0.117 azoff 0.00 eloff 0.00 source G0.0 
Fstart 1419.397 fstop 1421.403 spacing 0.009375 bw    2.400 fbw    2.000 MHz nfreq 256 nsam 5242880 npoint 214 integ     9 sigma    0.444 bsw 0
Spectrum      8 integration periods
 165.021  166.051  165.547  165.291  165.777  165.100  165.809  165.840  165.255  166.720  165.551  164.720  165.778  165.306  164.243  164.559  164.497  165.920  165.211  166.119  165.645  165.188  165.691  164.806  164.793  165.030  165.476  165.007  163.994  164.652  165.203  164.217  165.204  165.457  163.696  163.377  164.327  164.019  165.586  163.938  167.740  165.084  164.523  163.739  164.138  164.903  164.302  164.619  164.686  164.706  163.980  164.244  164.828  165.605  165.067  164.187  173.193  165.451  165.304  165.379  165.474  165.704  165.611  166.092  164.583  165.141  165.430  165.541  167.524  188.257  167.727  171.390  166.462  165.054  165.524  165.452  165.572  165.345  164.909  166.537  165.413  165.635  164.793  165.675  164.755  165.149  165.188  167.987  164.867  166.038  164.833  164.408  165.444  164.332  164.510  166.837  165.866  165.705  165.667  166.411  165.454  166.427  166.528  172.481  167.504  166.449  165.945  166.668  165.997  166.725  165.644  166.149  167.116  166.596  166.776  168.209  170.248  169.691  171.970  170.924  172.982  174.671  175.080  178.085  181.140  185.524  191.843  198.179  204.781  209.722  207.320  205.003  209.916  219.214  223.951  211.137  202.871  194.530  189.401  184.495  181.906  181.104  178.720  175.669  173.431  172.806  172.569  171.207  171.588  169.879  169.213  169.589  169.383  166.655  168.052  167.938  167.344  165.966  168.974  166.473  166.691  166.008  166.158  165.883  166.589  165.753  165.697  166.471  166.929  166.152  166.113  166.810  165.698  166.293  166.550  166.049  166.786  165.828  166.986  166.127  165.963  169.804  166.720  166.358  167.041  167.015  165.969  165.752  165.870  166.778  165.839  165.982  165.582  167.160  166.178  164.918  166.829  166.062  167.251  166.509  166.386  165.811  166.115  166.261  165.762  169.691  169.820  166.286  166.764  165.172  167.248  166.668  167.498  166.440 
DATE 2017:074:10:41:02 obsn  26 az 152 el 20 freq_MHz  1420.4000 Tsys 127.050 Tant 22.824 vlsr  -40.08 glat -0.205 glon  0.117 azoff 0.00 eloff 0.00 source G0.0 
Fstart 1419.397 fstop 1421.403 spacing 0.009375 bw    2.400 fbw    2.000 MHz nfreq 256 nsam 5242880 npoint 214 integ    20 sigma    0.296 bsw 0
Spectrum     18 integration periods
 153.836  154.160  153.539  153.606  154.325  153.764  154.453  154.251  154.208  154.762  154.344  154.160  154.285  154.134  154.026  153.724  153.776  154.286  153.901  154.168  154.492  154.211  154.404  153.850  153.830  154.000  154.356  153.351  153.156  153.648  154.196  153.246  153.070  153.480  153.258  152.955  152.898  153.597  153.660  153.298  155.187  153.574  153.775  153.035  153.423  153.414  153.395  153.259  152.929  153.416  153.018  153.392  153.370  154.271  153.662  153.826  157.666  154.240  153.720  154.065  154.179  154.101  154.584  154.783  153.281  154.257  153.877  153.927  155.957  177.024  157.845  158.781  154.544  153.560  154.213  153.955  154.599  154.500  153.884  154.562  154.312  154.225  153.991  154.004  153.787  153.943  154.070  155.214  154.021  154.058  154.181  153.511  153.948  153.971  154.092  155.199  153.995  154.191  154.093  154.695  153.981  153.796  154.217  157.154  155.253  154.718  154.337  154.928  154.728  155.008  154.628  155.163  155.617  156.141  156.006  156.919  158.457  158.370  160.228  160.221  161.977  163.950  165.283  168.007  171.072  176.226  182.793  189.552  196.428  201.756  199.836  196.270  201.828  212.213  212.951  203.015  194.472  185.366  179.158  174.383  171.247  169.840  167.400  165.314  162.948  162.002  161.054  159.842  159.712  158.418  157.427  157.953  157.087  155.763  156.455  156.091  155.477  154.876  156.219  155.504  155.496  154.437  154.881  154.772  154.916  154.734  154.462  154.672  155.332  154.695  154.516  155.089  154.737  155.036  155.092  154.525  154.893  154.366  154.922  154.514  154.045  156.070  154.646  154.978  154.773  154.762  154.434  153.990  154.044  154.870  154.081  154.424  153.907  154.826  154.369  153.920  155.197  154.341  155.080  154.541  154.398  154.184  154.503  154.689  154.584  158.210  157.220  154.522  154.842  154.294  154.805  154.738  155.458  154.629 
DATE 2017:074:10:41:26 obsn  27 az 143 el 25 freq_MHz  1420.4000 Tsys 127.050 Tant 21.427 vlsr  -42.34 glat -0.205 glon 10.118 azoff 0.00 eloff 0.00 source G10.0 
Fstart 1419.397 fstop 1421.403 spacing 0.009375 bw    2.400 fbw    2.000 MHz nfreq 256 nsam 5242880 npoint 214 integ     2 sigma    0.888 bsw 0
Spectrum      2 integration periods
 145.282  143.731  144.381  144.793  144.157  142.716  143.667  144.943  144.475  145.006  145.923  145.138  144.399  144.223  144.679  143.344  143.611  145.107  144.433  145.091  144.138  144.874  143.832  141.872  145.623  143.490  142.415  145.477  144.408  144.052  144.983  144.191  142.395  146.341  141.471  141.935  145.398  145.544  142.463  144.021  142.583  143.481  144.831  143.075  145.166  142.814  142.729  143.668  145.770  143.528  143.584  144.943  144.428  144.946  142.909  146.198  145.600  144.443  145.628  142.604  143.162  144.549  145.650  145.093  145.449  144.100  144.063  144.128  144.989  173.164  148.379  150.117  143.711  145.051  143.600  146.317  144.483  143.345  145.626  144.217  145.034  143.367  145.006  144.729  145.867  145.121  144.387  144.391  142.432  144.671  146.550  144.868  145.250  144.273  144.499  142.261  143.196  144.846  143.669  144.412  144.117  143.273  145.234  144.726  146.151  145.244  146.651  146.460  145.305  148.372  147.150  147.235  148.091  151.849  150.498  149.315  153.166  152.433  154.164  157.433  158.918  162.508  164.126  167.601  171.197  175.715  181.434  184.981  189.045  194.804  194.794  187.629  190.832  198.807  196.313  184.611  179.149  171.792  167.806  160.751  161.108  160.705  157.763  155.064  154.317  153.685  152.023  150.212  149.687  147.963  146.537  148.180  144.145  147.914  146.277  146.577  145.100  145.664  146.292  145.697  143.682  145.008  145.932  146.160  143.114  146.442  144.971  145.526  144.709  144.124  142.820  144.314  143.058  144.352  143.707  144.143  142.938  143.055  143.844  143.874  143.376  143.221  142.754  145.197  143.995  144.021  143.963  145.072  142.501  143.106  143.692  143.747  144.081  143.446  143.268  142.281  143.678  144.228  142.977  143.549  143.405  144.143  145.732  145.604  144.085  143.541  145.322  143.649  144.946  145.195  144.376  143.124  143.439  144.344 
DATE 2017:074:10:41:39 obsn  28 az 143 el 25 freq_MHz  1420.4000 Tsys 127.050 Tant 21.508 vlsr  -42.34 glat -0.205 glon 10.118 azoff 0.00 eloff 0.00 source G10.0 
Fstart 1419.397 fstop 1421.403 spacing 0.009375 bw    2.400 fbw    2.000 MHz nfreq 256 nsam 5242880 npoint 214 integ    13 sigma    0.362 bsw 0
Spectrum     12 integration periods
 142.606  142.477  142.392  143.135  143.102  143.675  142.990  143.694  143.734  144.022  143.419  143.594  143.505  143.847  143.140  142.874  142.974  143.339  143.283  143.575  143.987  143.660  143.498  143.135  143.986  143.128  142.826  143.092  143.690  143.173  143.612  143.049  142.699  142.991  142.413  142.309  143.249  142.792  143.061  142.990  143.275  143.538  143.043  143.402  143.394  143.601  142.901  142.839  143.446  143.311  143.120  143.086  143.296  142.674  143.226  143.554  144.461  144.433  144.502  143.542  143.254  144.046  143.788  145.209  143.907  143.217  143.391  144.314  145.610  172.309  146.918  150.425  145.004  144.466  144.614  144.833  143.496  143.439  143.545  144.300  144.854  143.570  143.592  143.994  144.087  142.927  143.415  144.351  143.178  143.761  144.650  143.679  144.327  143.941  143.605  144.014  144.271  143.514  144.100  144.370  144.341  144.258  145.148  144.957  144.756  145.339  145.334  146.302  146.461  147.536  148.124  149.084  149.429  150.953  151.369  152.200  154.370  155.306  157.387  159.972  162.751  167.508  170.418  174.366  177.472  181.953  185.567  189.088  191.497  193.104  190.417  186.078  186.983  191.686  188.438  177.268  169.146  164.823  161.668  160.596  159.369  158.811  157.672  156.558  154.289  153.534  151.856  150.223  148.985  147.921  146.809  146.439  145.043  145.314  144.859  144.908  144.450  144.314  143.795  144.737  143.546  144.231  144.068  143.493  142.812  144.332  143.935  143.342  143.986  143.920  143.314  143.038  143.079  143.153  142.831  143.020  143.406  143.112  143.558  143.447  143.452  142.740  143.114  143.300  143.475  143.464  143.912  143.494  142.429  143.570  143.112  143.347  143.102  142.844  143.399  142.624  143.151  142.806  143.010  143.269  143.425  143.728  143.588  143.474  143.064  144.360  144.440  143.163  142.544  143.166  142.440  143.316  143.717  143.623 
DATE 2017:074:10:41:52 obsn  29 az 143 el 25 freq_MHz  1420.4000 Tsys 127.050 Tant 22.152 vlsr  -42.34 glat -0.205 glon 10.118 azoff 0.00 eloff 0.00 source G10.0 
Fstart 1419.397 fstop 1421.403 spacing 0.009375 bw    2.400 fbw    2.000 MHz nfreq 256 nsam 5242880 npoint 214 integ    24 sigma    0.268 bsw 0
Spectrum     22 integration periods
 143.063  142.660  142.289  143.198  142.873  143.111  143.020  143.610  143.272  143.930  143.388  143.063  143.311  143.846  143.425  143.217  143.136  143.296  143.497  143.773  144.009  143.480  143.283  143.197  143.842  143.322  143.014  143.212  143.413  143.342  143.682  143.055  142.693  142.887  142.197  142.499  143.083  142.828  142.946  143.099  143.677  143.565  142.859  143.320  143.482  143.817  142.958  143.027  143.411  143.329  143.090  143.148  143.048  142.888  143.225  143.585  144.307  143.854  144.116  143.641  143.242  143.530  144.009  145.505  143.581  143.341  143.679  144.520  145.551  172.229  147.207  150.391  145.131  144.234  144.143  144.465  143.683  143.530  143.613  144.489  144.497  143.070  143.514  144.133  144.300  143.501  143.671  144.479  143.846  143.886  144.332  144.144  144.224  143.805  143.626  143.934  144.159  143.844  144.246  144.691  144.687  144.678  144.753  145.015  145.078  146.022  145.699  146.438  146.842  147.722  148.308  149.112  149.724  151.280  151.420  152.500  154.272  156.028  157.987  160.116  163.767  167.778  171.173  174.497  177.714  182.423  186.223  189.326  191.492  192.394  189.896  186.534  187.038  191.663  188.049  175.972  168.387  164.282  161.256  159.975  159.429  158.780  157.767  156.802  154.723  153.646  152.040  150.834  149.254  147.867  147.103  146.336  145.664  145.427  145.018  144.996  144.517  144.198  143.771  144.376  144.016  144.126  143.778  143.765  143.268  144.139  143.658  143.621  143.705  144.010  143.184  143.079  143.159  143.284  143.198  142.935  143.395  143.154  143.453  143.266  142.924  143.022  143.320  143.514  143.461  143.153  143.594  143.254  143.069  143.610  143.160  143.340  143.563  143.060  143.335  142.681  143.706  142.924  143.298  143.357  143.513  143.184  143.173  143.141  143.420  144.221  144.092  143.228  142.843  143.088  142.542  143.432  143.917  143.639 
DATE 2017:074:10:42:19 obsn  30 az 133 el 29 freq_MHz  1420.4000 Tsys 127.050 Tant 21.283 vlsr  -43.33 glat -0.200 glon 20.118 azoff 0.00 eloff 0.00 source G20.0 
Fstart 1419.397 fstop 1421.403 spacing 0.009375 bw    2.400 fbw    2.000 MHz nfreq 256 nsam 5242880 npoint 214 integ     7 sigma    0.513 bsw 0
Spectrum      6 integration periods
 141.736  142.030  141.356  142.921  141.274  142.323  142.339  142.517  142.244  141.375  141.991  141.246  141.183  141.550  142.074  143.073  142.239  140.764  141.803  143.166  142.205  142.058  141.386  142.251  142.601  140.652  140.721  141.877  142.127  140.972  141.064  141.521  141.905  142.282  142.252  140.844  141.495  141.276  140.954  140.936  140.777  142.364  141.389  140.930  140.357  141.741  141.537  140.942  140.037  140.955  141.902  141.700  141.727  140.977  140.522  141.672  141.201  143.216  142.536  142.289  141.659  142.026  142.842  143.570  142.259  142.507  142.286  144.961  145.183  156.425  151.854  146.097  145.018  144.087  144.763  143.724  144.322  144.988  143.601  144.235  144.881  144.450  143.744  144.497  144.956  145.090  144.938  145.657  145.042  144.322  144.942  144.876  145.302  144.308  145.778  145.584  145.968  146.564  146.429  145.937  146.442  146.882  146.666  147.393  148.245  148.496  148.508  149.325  149.513  150.349  151.378  150.251  152.333  152.573  154.776  155.816  158.509  160.647  164.506  167.454  171.086  175.088  177.924  182.074  184.653  186.541  186.781  187.465  185.119  184.031  181.333  183.169  183.844  188.907  189.009  182.102  167.284  159.506  156.421  154.456  153.609  152.680  153.378  151.900  152.680  152.685  151.868  153.369  152.685  152.027  152.140  151.408  151.139  148.907  147.775  147.300  145.737  145.333  145.188  143.557  144.613  142.486  142.637  141.570  142.272  142.689  142.944  141.327  142.713  142.267  142.371  143.220  142.214  143.266  142.077  142.016  142.179  142.341  142.578  142.944  143.574  143.023  143.585  142.503  142.372  141.640  142.635  142.727  142.984  142.770  142.969  141.917  142.516  142.379  143.434  142.662  142.861  142.639  142.172  142.862  143.184  142.873  143.636  144.436  142.809  143.743  144.985  142.896  142.969  143.781  143.150  143.807  143.404  143.816 
DATE 2017:074:10:42:32 obsn  31 az 133 el 29 freq_MHz  1420.4000 Tsys 127.050 Tant 21.295 vlsr  -43.33 glat -0.200 glon 20.118 azoff 0.00 eloff 0.00 source G20.0 
Fstart 1419.397 fstop 1421.403 spacing 0.009375 bw    2.400 fbw    2.000 MHz nfreq 256 nsam 5242880 npoint 214 integ    17 sigma    0.314 bsw 0
Spectrum     16 integration periods
 141.447  141.628  141.055  142.224  141.678  142.124  141.558  142.110  141.712  141.388  141.886  141.135  141.272  141.228  141.802  141.954  142.251  141.051  141.282  142.217  141.395  141.346  141.259  141.812  141.518  141.284  141.716  141.714  142.770  141.408  141.333  141.616  141.456  141.534  141.386  140.960  141.193  141.761  140.614  140.923  140.792  141.783  141.079  140.961  140.655  140.883  141.346  141.185  141.041  140.815  141.611  140.657  140.947  140.425  140.591  141.740  141.395  142.264  141.999  141.802  141.900  141.631  142.245  142.942  141.922  142.147  142.264  144.345  144.281  154.742  150.873  145.816  144.062  143.574  144.646  144.414  144.363  144.361  144.210  144.766  144.960  144.274  144.461  144.729  145.385  145.078  144.657  145.195  145.265  145.113  145.444  145.086  145.140  145.047  145.366  146.145  146.411  146.296  146.500  146.486  146.413  146.640  146.488  147.936  148.559  148.799  149.082  150.073  149.413  150.902  151.758  151.089  152.747  153.843  155.479  156.483  159.247  161.770  165.720  168.534  171.712  175.312  179.119  182.450  186.556  187.094  187.261  186.232  185.063  183.791  181.213  181.733  184.353  188.192  189.911  182.464  167.406  159.208  156.273  154.611  152.972  152.787  152.773  151.940  152.357  152.539  152.366  153.443  153.049  152.816  153.093  152.123  152.045  149.982  148.571  147.313  145.885  144.837  144.869  143.464  143.711  142.905  143.284  142.167  142.182  142.321  142.668  142.470  142.039  142.613  142.549  143.073  142.017  143.091  142.470  142.101  142.194  142.264  142.517  142.937  143.086  142.770  143.398  142.973  142.472  142.205  143.406  142.022  142.725  142.671  143.144  142.483  143.062  142.058  143.161  142.998  142.933  143.493  142.339  143.334  143.206  142.914  143.281  143.820  142.825  143.617  143.729  142.994  142.755  143.871  143.412  143.434  143.920  143.587 
DATE 2017:074:10:43:07 obsn  32 az 122 el 33 freq_MHz  1420.4000 Tsys 127.050 Tant 21.399 vlsr  -42.99 glat -0.188 glon 30.118 azoff 0.00 eloff 0.00 source G30.0 
Fstart 1419.397 fstop 1421.403 spacing 0.009375 bw    2.400 fbw    2.000 MHz nfreq 256 nsam 5242880 npoint 214 integ     7 sigma    0.513 bsw 0
Spectrum      6 integration periods
 141.175  141.109  141.506  141.011  140.407  140.676  140.864  142.111  141.478  141.979  140.823  140.961  139.864  140.678  141.415  141.288  141.658  141.617  142.030  141.320  141.146  142.007  141.070  142.316  141.762  140.509  140.036  141.327  139.870  141.449  141.292  140.725  141.174  141.154  140.479  141.506  140.535  140.596  140.503  140.531  140.916  141.305  140.483  140.083  140.655  140.074  141.345  139.920  140.524  140.006  141.309  140.490  141.118  140.944  142.311  141.348  141.916  140.137  140.404  140.611  140.739  141.315  141.880  141.276  141.356  141.167  140.672  142.120  142.573  144.753  147.349  143.062  143.114  142.531  141.290  142.845  141.742  142.408  143.612  144.300  144.982  146.240  146.515  146.040  146.704  147.349  148.421  149.517  148.196  148.855  148.284  148.808  149.366  148.727  148.615  148.773  148.244  149.548  149.133  149.894  149.093  149.247  149.807  150.802  150.447  150.681  151.108  151.975  152.117  153.992  154.681  154.139  155.157  158.005  158.110  158.351  158.693  159.094  162.708  163.670  165.110  169.282  172.284  174.742  176.727  178.020  180.379  180.725  181.687  182.546  182.229  181.820  183.291  186.309  183.919  175.025  162.319  152.965  149.397  148.362  147.434  146.889  147.235  147.139  147.855  148.492  148.841  148.391  149.215  150.942  150.752  151.660  151.905  151.870  152.708  154.334  153.493  153.573  152.209  152.086  150.414  148.579  146.252  144.866  144.341  143.630  143.213  142.359  141.980  142.448  141.478  142.150  142.397  141.819  142.058  141.732  140.710  141.606  141.369  142.270  141.154  141.542  142.452  142.901  142.272  141.827  141.333  141.391  140.542  142.005  142.038  141.451  140.572  141.307  142.084  140.925  142.043  142.052  141.527  140.452  141.722  141.385  140.412  141.449  142.063  141.875  141.794  142.477  141.658  141.618  140.568  142.270  142.241  141.585 
DATE 2017:074:10:43:20 obsn  33 az 122 el 33 freq_MHz  1420.4000 Tsys 127.050 Tant 21.315 vlsr  -42.99 glat -0.188 glon 30.118 azoff 0.00 eloff 0.00 source G30.0 
Fstart 1419.397 fstop 1421.403 spacing 0.009375 bw    2.400 fbw    2.000 MHz nfreq 256 nsam 5242880 npoint 214 integ    17 sigma    0.314 bsw 0
Spectrum     16 integration periods
 141.467  141.732  140.931  141.242  141.064  140.881  141.336  142.322  141.900  141.992  140.963  140.982  141.268  141.128  141.036  141.745  142.032  141.571  141.422  141.037  141.348  141.614  141.298  141.448  141.065  141.473  140.449  141.027  141.241  141.222  140.873  141.200  141.405  141.050  140.629  141.123  141.226  140.270  140.559  140.855  141.153  141.653  140.771  140.481  140.441  140.260  141.241  140.047  140.624  140.706  141.223  140.963  140.974  141.135  141.983  141.545  141.391  140.522  140.630  141.373  140.480  141.082  141.255  142.104  141.477  140.773  140.892  142.253  142.518  144.166  143.320  143.074  142.846  141.892  141.670  143.194  142.560  143.117  143.721  144.606  145.238  146.410  146.791  147.003  147.399  148.141  148.157  150.010  148.847  149.525  148.967  149.961  150.171  149.477  150.098  149.888  149.680  149.780  150.157  150.076  149.982  149.962  150.682  151.295  151.239  151.333  152.139  152.887  153.083  153.836  154.634  154.948  156.035  158.445  158.920  158.964  160.011  160.245  162.863  164.038  165.800  169.292  172.507  174.260  177.028  177.653  179.521  180.164  181.412  181.911  182.373  182.424  184.099  185.684  182.915  175.094  161.986  152.598  148.953  148.016  147.038  147.258  147.061  146.933  146.967  148.601  148.803  148.630  148.756  150.431  150.427  152.061  152.698  152.729  153.664  154.996  153.809  154.061  153.483  152.061  151.741  149.073  146.763  145.176  144.602  143.409  143.272  143.304  142.525  142.181  141.780  142.458  142.155  141.391  141.990  141.452  141.021  141.541  141.306  141.747  141.746  141.931  141.875  141.771  141.842  141.782  141.514  141.632  141.350  141.694  141.829  141.379  141.034  141.445  141.787  141.250  141.946  142.064  141.834  141.332  141.735  141.220  141.230  141.911  141.920  142.083  141.885  141.916  141.391  141.604  141.407  141.605  142.095  142.163 
DATE 2017:074:10:43:33 obsn  34 az 122 el 33 freq_MHz  1420.4000 Tsys 127.050 Tant 21.482 vlsr  -42.99 glat -0.188 glon 30.118 azoff 0.00 eloff 0.00 source G30.0 
Fstart 1419.397 fstop 1421.403 spacing 0.009375 bw    2.400 fbw    2.000 MHz nfreq 256 nsam 5242880 npoint 214 integ    28 sigma    0.246 bsw 0
Spectrum     26 integration periods
 141.269  141.523  140.868  141.299  140.929  140.959  141.528  142.069  141.588  141.816  140.996  141.154  140.984  140.972  141.210  141.653  141.699  141.335  141.386  141.099  141.208  141.575  141.424  141.205  141.042  141.313  140.585  141.115  141.422  140.996  140.686  141.186  141.092  140.982  140.672  140.884  141.252  140.611  140.773  140.643  141.006  141.304  140.733  140.438  140.587  140.304  141.367  140.304  140.703  140.786  141.173  141.064  141.050  141.193  141.658  141.449  141.291  140.985  140.750  141.148  140.719  140.931  141.478  141.925  141.141  141.008  140.635  142.219  142.684  143.968  143.684  143.206  142.388  142.212  141.985  143.058  142.824  143.226  143.838  144.792  145.376  146.358  146.878  147.326  147.902  148.631  148.321  149.870  149.012  149.542  149.015  149.786  150.279  149.798  150.527  150.381  150.424  150.491  150.392  150.274  150.606  150.232  151.075  151.188  151.634  151.870  152.315  152.899  153.210  153.837  154.887  155.409  156.595  158.508  159.347  159.343  159.963  160.577  163.151  164.223  166.283  169.402  172.568  174.650  177.145  177.624  179.110  179.959  181.640  181.661  182.164  182.663  184.293  185.683  182.701  174.756  161.402  152.253  149.053  148.057  146.893  147.014  147.028  147.439  147.449  148.478  148.602  148.787  149.110  150.134  150.308  152.053  152.444  153.069  153.821  155.223  154.014  154.566  153.565  152.337  151.821  149.389  146.954  145.235  145.025  143.676  143.069  143.277  142.673  142.630  141.855  142.426  142.028  141.677  141.776  141.418  141.482  141.998  141.372  141.842  142.031  142.143  141.635  141.755  141.792  141.467  141.370  141.780  141.767  141.492  141.810  141.729  141.473  141.432  141.733  141.379  141.820  141.957  141.740  141.436  141.900  141.229  141.282  141.808  141.861  141.832  141.859  141.763  141.399  141.587  141.624  141.882  141.867  142.184 
DATE 2017:074:10:44:00 obsn  35 az 110 el 36 freq_MHz  1420.4000 Tsys 127.050 Tant 20.004 vlsr  -41.35 glat -0.171 glon 40.118 azoff 0.00 eloff 0.00 source G40.0 
Fstart 1419.397 fstop 1421.403 spacing 0.009375 bw    2.400 fbw    2.000 MHz nfreq 256 nsam 5242880 npoint 214 integ    11 sigma    0.397 bsw 0
Spectrum     10 integration periods
 140.973  139.302  139.489  140.667  140.005  141.106  139.499  140.364  140.032  140.964  140.530  140.228  139.934  140.088  140.589  139.889  140.586  139.532  140.246  140.482  139.964  139.862  140.688  140.071  139.349  139.902  140.310  139.991  140.557  141.012  139.647  140.158  140.266  139.474  139.901  139.603  140.234  138.884  139.201  139.840  139.131  139.302  140.511  140.164  139.802  139.527  139.386  140.230  140.332  138.699  140.431  139.686  139.638  140.693  140.689  140.102  139.970  139.699  139.852  139.549  139.930  140.052  140.354  140.488  139.618  140.199  140.522  139.943  140.667  140.672  147.907  142.821  140.638  140.180  140.039  140.614  140.562  140.142  140.869  140.681  140.807  140.834  141.163  141.838  141.789  142.296  142.325  143.484  143.502  144.521  144.355  145.061  146.423  147.131  147.137  147.570  148.345  149.485  149.167  150.620  152.454  152.580  152.346  153.226  153.850  154.848  155.509  155.902  155.476  156.818  157.928  159.399  161.334  163.779  167.862  170.047  170.464  174.257  175.653  174.665  174.005  174.430  175.390  172.977  171.976  170.438  170.915  171.718  173.809  175.242  176.794  179.964  179.134  175.607  167.231  158.393  149.781  147.198  144.953  144.097  144.048  143.890  144.341  144.310  144.437  145.215  144.960  146.279  146.467  147.067  148.692  148.575  149.714  149.052  149.783  149.920  148.403  150.496  149.870  151.590  152.162  151.961  153.313  154.285  152.662  151.057  149.049  147.852  146.981  145.042  142.827  142.602  142.474  142.318  142.477  141.793  141.807  140.340  141.113  140.708  141.149  140.778  140.200  140.267  141.107  140.939  140.593  140.599  140.893  140.431  140.694  140.684  140.678  141.022  141.481  140.435  141.272  141.284  140.901  140.299  140.667  140.613  141.441  141.147  140.780  141.798  141.261  140.880  140.767  140.456  140.043  140.901  140.918  140.972 
DATE 2017:074:10:44:21 obsn  36 az 111 el 36 freq_MHz  1420.4000 Tsys 127.050 Tant 19.834 vlsr  -41.35 glat -0.171 glon 40.118 azoff 0.00 eloff 0.00 source G40.0 
Fstart 1419.397 fstop 1421.403 spacing 0.009375 bw    2.400 fbw    2.000 MHz nfreq 256 nsam 5242880 npoint 214 integ    22 sigma    0.281 bsw 0
Spectrum     20 integration periods
 140.770  139.849  139.375  140.530  139.872  140.338  139.767  140.599  140.251  140.680  140.202  139.598  139.924  140.020  140.370  139.613  140.304  139.898  140.316  140.602  139.949  140.206  140.619  139.957  139.776  140.309  140.200  140.106  140.446  140.319  139.552  140.043  140.262  139.652  139.852  139.941  139.811  139.312  139.333  139.388  139.476  139.821  140.306  139.945  139.783  139.662  139.630  139.815  139.837  138.999  140.179  139.844  139.300  140.268  140.892  140.087  140.166  140.066  139.922  140.028  139.846  139.700  140.278  140.733  139.701  140.301  140.400  140.102  140.515  141.374  149.100  142.438  140.279  140.137  140.089  140.070  140.573  140.117  140.676  140.303  140.497  140.677  140.884  141.706  141.921  141.819  142.061  142.702  143.564  143.831  143.908  144.776  145.660  146.475  147.090  147.828  148.179  149.225  149.527  150.675  151.587  151.920  152.155  153.539  154.242  154.963  155.131  156.181  156.096  157.242  157.947  159.801  161.469  163.720  167.676  169.808  171.333  173.699  175.517  174.788  174.233  175.025  174.717  172.714  171.355  170.136  170.569  171.720  173.112  173.939  176.348  179.286  178.987  175.445  166.646  157.722  149.541  146.559  144.589  144.096  143.700  143.599  143.907  144.469  144.443  144.743  145.067  146.101  146.471  147.064  148.209  148.568  149.080  148.282  149.007  149.406  148.290  150.016  149.663  151.328  152.188  152.184  152.912  153.779  153.050  151.243  148.867  147.793  146.361  145.078  143.113  142.755  142.375  142.166  141.754  141.556  141.056  140.296  140.662  140.757  140.844  140.522  140.721  140.242  141.045  140.500  140.616  140.340  140.824  140.249  140.356  140.492  140.228  140.611  140.585  140.287  140.744  141.073  140.720  140.459  140.674  140.316  140.712  141.251  140.926  141.565  141.237  140.807  140.599  140.582  140.626  140.294  140.713  141.103 
DATE 2017:074:10:44:48 obsn  37 az  98 el 38 freq_MHz  1420.4000 Tsys 127.050 Tant 18.113 vlsr  -38.46 glat -0.149 glon 50.118 azoff 0.00 eloff 0.00 source G50.0 
Fstart 1419.397 fstop 1421.403 spacing 0.009375 bw    2.400 fbw    2.000 MHz nfreq 256 nsam 5242880 npoint 214 integ    11 sigma    0.397 bsw 0
Spectrum     10 integration periods
 139.099  139.565  138.588  139.449  138.914  139.015  139.258  139.504  139.500  139.216  139.156  139.190  138.640  139.183  139.983  139.347  139.513  139.330  139.899  139.835  138.750  140.137  139.763  139.369  139.727  139.212  138.500  139.327  140.227  138.261  139.125  139.620  139.424  138.604  139.460  139.174  139.162  139.677  138.579  138.359  138.352  140.065  139.751  138.974  139.331  138.634  137.824  138.507  138.548  139.106  140.052  138.503  138.858  139.991  140.433  139.278  139.882  139.210  139.479  139.571  139.383  139.902  140.474  140.025  139.010  139.781  138.366  139.102  140.183  143.052  146.865  142.092  139.795  139.292  139.374  139.825  139.281  139.116  138.778  139.270  139.066  138.505  139.423  139.510  140.354  139.381  139.409  139.531  140.149  139.872  139.695  140.613  140.545  140.786  141.511  142.531  143.248  144.516  144.513  145.741  147.983  149.442  151.034  152.345  152.815  154.070  154.460  155.730  155.571  156.600  156.531  156.468  156.875  158.279  159.864  160.876  162.741  163.566  165.371  165.554  165.307  166.959  167.705  168.189  167.677  169.566  172.186  173.157  174.855  177.761  179.909  180.120  175.760  167.399  157.405  149.817  145.545  143.369  142.623  143.257  141.624  141.891  141.835  141.365  141.819  141.857  142.922  143.321  143.076  143.918  144.596  144.872  145.843  144.721  145.943  146.987  147.816  147.913  146.800  147.702  148.833  146.939  147.330  147.741  147.719  147.824  147.169  147.555  147.777  146.953  146.175  146.403  145.598  146.179  144.414  142.800  142.276  141.076  140.955  141.223  139.909  139.693  140.844  140.341  140.439  139.215  139.501  139.760  140.150  138.682  140.054  139.768  140.328  139.325  140.460  139.102  140.242  139.041  139.360  139.732  138.998  139.490  139.165  140.757  140.070  140.462  140.922  140.525  139.762  139.587  139.687  140.243  139.913  140.072 
DATE 2017:074:10:45:01 obsn  38 az  98 el 38 freq_MHz  1420.4000 Tsys 127.050 Tant 18.455 vlsr  -38.46 glat -0.149 glon 50.118 azoff 0.00 eloff 0.00 source G50.0 
Fstart 1419.397 fstop 1421.403 spacing 0.009375 bw    2.400 fbw    2.000 MHz nfreq 256 nsam 5242880 npoint 214 integ    22 sigma    0.281 bsw 0
Spectrum     20 integration periods
 139.113  139.132  138.718  139.195  138.950  139.070  139.298  139.554  139.377  139.425  139.432  138.893  138.929  139.446  139.725  139.287  139.657  139.177  139.454  139.663  139.040  139.810  139.251  139.386  139.720  139.357  138.741  139.097  140.358  138.665  138.982  138.928  139.199  139.173  139.476  138.835  139.027  140.019  138.788  138.954  138.166  139.468  139.323  138.614  138.982  138.593  138.401  138.274  138.576  138.736  140.176  138.294  138.643  139.632  140.365  139.033  139.403  138.957  139.913  139.851  138.873  139.577  140.615  139.850  138.932  139.613  139.426  139.367  140.067  143.808  148.246  142.145  139.836  139.506  139.198  139.871  139.202  139.066  138.904  139.226  139.295  138.652  138.881  139.093  139.917  139.224  139.130  139.669  139.466  140.100  139.986  140.368  140.311  140.811  140.859  142.107  143.360  144.658  144.746  146.729  147.488  149.180  150.755  152.259  153.126  155.085  155.067  155.883  156.139  156.919  156.724  156.667  157.030  157.951  159.231  160.450  161.936  163.097  164.935  165.103  165.734  167.129  167.521  167.963  168.339  169.965  172.353  173.235  175.064  178.436  180.848  180.204  175.965  166.597  156.684  149.429  145.172  143.332  142.540  143.061  142.018  141.627  141.535  141.622  141.915  142.059  143.147  143.106  143.263  144.061  143.682  144.571  145.650  145.051  146.207  146.484  147.410  147.931  147.063  147.851  148.697  147.412  147.746  147.809  147.680  147.938  147.645  147.500  147.825  147.228  146.944  146.427  146.225  145.912  144.378  143.231  142.299  141.537  141.095  141.049  140.210  139.603  140.643  140.187  140.022  139.261  139.771  139.605  139.998  139.427  140.225  139.692  139.928  139.132  140.205  139.394  139.602  139.077  139.087  139.714  138.999  139.502  139.060  140.416  139.880  139.987  140.035  140.206  139.528  139.286  139.725  139.956  140.465  140.113 
DATE 2017:074:10:45:28 obsn  39 az  86 el 38 freq_MHz  1420.4000 Tsys 127.050 Tant 16.960 vlsr  -34.39 glat -0.122 glon 60.118 azoff 0.00 eloff 0.00 source G60.0 
Fstart 1419.397 fstop 1421.403 spacing 0.009375 bw    2.400 fbw    2.000 MHz nfreq 256 nsam 5242880 npoint 214 integ     4 sigma    0.628 bsw 0
Spectrum      4 integration periods
 140.048  139.287  138.552  138.373  137.228  137.127  137.962  138.881  139.182  138.604  138.036  138.289  139.084  139.412  140.148  138.103  138.657  138.977  137.892  137.185  137.118  138.493  139.420  139.118  138.894  139.125  139.587  138.366  138.656  139.479  138.731  137.521  139.514  137.184  139.143  139.554  138.774  138.468  138.811  138.190  139.578  138.595  138.529  138.182  138.083  138.890  137.976  138.193  137.860  137.580  139.265  138.330  139.031  137.128  138.832  137.007  138.881  136.991  138.474  137.859  138.190  138.563  139.427  140.035  138.085  137.663  138.311  137.836  140.864  145.793  151.792  141.928  138.377  139.311  137.735  138.895  137.785  139.065  138.323  137.805  137.374  138.202  137.177  138.320  137.858  138.692  138.071  137.518  137.951  138.671  138.109  137.796  139.140  138.512  139.414  140.170  139.420  140.001  141.475  141.794  141.716  142.072  145.393  145.562  144.518  145.866  146.670  147.861  149.127  151.544  150.749  153.827  153.636  155.834  156.151  157.784  158.588  159.477  161.693  161.706  162.725  164.314  165.312  167.493  168.083  173.517  181.312  184.421  183.660  181.058  174.770  168.578  162.104  158.171  152.532  147.831  145.330  143.302  144.118  144.685  141.497  142.635  142.308  140.978  142.322  140.958  141.637  140.501  140.786  141.261  141.902  143.346  142.610  143.302  144.639  146.869  148.258  148.762  150.195  150.926  150.200  150.550  149.667  150.221  150.107  148.862  148.657  149.183  148.588  148.207  148.545  148.238  147.973  146.633  145.227  143.730  144.315  143.625  142.601  144.024  143.459  141.991  140.982  141.660  139.744  140.516  138.417  138.916  139.167  139.050  139.603  138.663  139.785  139.082  139.394  138.495  138.803  139.055  139.574  138.206  137.725  138.115  138.604  139.747  138.532  140.267  139.923  139.145  137.483  138.762  138.036  138.758  137.930  138.947 
DATE 2017:074:10:45:41 obsn  40 az  86 el 38 freq_MHz  1420.4000 Tsys 127.050 Tant 16.604 vlsr  -34.39 glat -0.122 glon 60.118 azoff 0.00 eloff 0.00 source G60.0 
Fstart 1419.397 fstop 1421.403 spacing 0.009375 bw    2.400 fbw    2.000 MHz nfreq 256 nsam 5242880 npoint 214 integ    15 sigma    0.336 bsw 0
Spectrum     14 integration periods
 139.362  138.076  138.246  138.052  138.017  137.780  138.612  138.578  138.723  138.530  137.767  137.789  138.174  138.031  138.866  137.777  138.078  138.426  138.027  137.658  137.482  138.069  138.371  138.505  138.817  138.632  138.295  138.363  138.360  138.175  138.080  137.185  138.596  137.793  138.356  137.892  137.623  138.128  137.955  138.240  138.202  137.627  137.649  137.674  137.828  137.310  136.973  137.374  137.321  137.806  138.064  137.689  138.100  137.476  138.079  137.122  137.845  137.675  137.941  137.891  138.059  138.559  138.121  139.713  137.994  138.049  137.987  138.224  140.612  147.151  150.377  142.235  138.040  138.406  137.187  137.651  137.906  137.899  137.853  137.721  137.514  137.350  137.029  137.680  137.530  137.838  137.473  138.050  137.798  137.973  138.393  138.137  137.885  137.953  139.222  138.351  138.789  138.770  139.422  139.766  140.400  140.591  142.060  143.881  142.865  144.368  145.470  146.259  147.327  149.428  149.857  153.316  153.221  155.481  156.125  157.051  158.370  159.163  161.105  161.665  161.648  163.423  165.097  166.751  168.527  174.759  182.732  186.319  184.988  180.427  173.601  166.336  160.080  154.674  151.183  147.819  146.204  144.196  144.042  143.988  142.680  142.318  141.924  141.222  141.323  140.822  141.021  140.658  140.712  141.004  141.264  141.806  143.298  143.812  144.816  146.517  148.581  149.119  149.820  150.456  151.310  150.849  150.121  150.841  150.536  149.743  149.860  149.748  149.871  149.111  148.802  147.925  147.173  146.650  145.709  144.894  144.652  144.156  143.810  143.991  143.675  141.973  141.381  141.191  139.841  139.812  138.817  139.555  138.777  138.523  138.758  138.495  138.661  138.714  138.571  138.510  138.338  138.299  139.161  138.257  138.226  137.829  138.267  138.867  139.228  140.168  140.190  138.571  137.473  138.479  138.228  138.432  138.596  138.234 
DATE 2017:074:10:45:55 obsn  41 az  86 el 38 freq_MHz  1420.4000 Tsys 127.050 Tant 17.195 vlsr  -34.39 glat -0.122 glon 60.118 azoff 0.00 eloff 0.00 source G60.0 
Fstart 1419.397 fstop 1421.403 spacing 0.009375 bw    2.400 fbw    2.000 MHz nfreq 256 nsam 5242880 npoint 214 integ    26 sigma    0.256 bsw 0
Spectrum     24 integration periods
 138.976  137.841  137.966  138.544  138.220  137.813  138.672  138.124  138.898  138.367  138.223  137.957  138.295  137.867  138.387  138.157  138.256  138.433  138.080  137.886  137.845  138.055  138.293  138.221  138.439  138.156  138.564  138.264  138.407  138.263  137.957  137.518  138.662  137.777  137.617  137.854  137.764  137.858  137.717  137.911  137.981  137.652  137.530  137.718  138.154  137.217  137.499  137.301  137.231  137.529  137.950  137.667  137.809  137.631  138.278  137.162  137.763  137.592  138.105  137.657  137.681  137.968  137.822  139.932  137.908  138.159  137.644  137.849  140.359  147.290  149.063  142.398  137.975  138.036  137.534  137.814  137.755  137.744  137.657  137.831  137.766  137.520  137.334  137.566  137.433  137.942  137.537  137.950  137.651  137.988  138.298  138.016  137.833  137.790  138.826  138.317  138.294  138.572  139.158  139.563  140.326  140.429  141.460  143.050  142.993  144.226  145.411  146.012  147.209  149.088  150.064  153.058  153.579  155.205  156.238  157.323  158.229  159.615  160.736  162.035  162.296  163.777  164.808  166.975  169.399  174.799  182.369  186.623  185.509  180.196  173.153  166.306  159.231  154.499  151.086  147.830  146.413  144.822  144.011  143.578  142.587  142.251  141.926  141.138  140.695  140.809  140.982  140.925  140.755  140.697  141.255  141.874  143.153  143.674  144.796  146.778  148.389  149.409  150.194  150.944  151.457  150.980  150.344  151.582  150.708  150.134  150.132  149.981  149.974  149.607  149.469  148.090  147.144  146.770  145.624  145.028  144.566  144.075  144.132  144.221  143.690  142.417  141.763  140.814  139.954  139.698  138.852  139.332  138.667  138.482  138.757  138.769  138.481  138.374  138.630  138.138  138.131  138.491  138.732  137.976  138.300  138.359  138.591  138.889  138.901  140.355  140.647  138.545  137.639  138.382  138.265  138.399  138.635  138.406 
DATE 2017:074:10:46:21 obsn  42 az  73 el 37 freq_MHz  1420.4000 Tsys 127.050 Tant 16.908 vlsr  -29.28 glat -0.091 glon 70.118 azoff 0.00 eloff 0.00 source G70.0 
Fstart 1419.397 fstop 1421.403 spacing 0.009375 bw    2.400 fbw    2.000 MHz nfreq 256 nsam 5242880 npoint 214 integ     9 sigma    0.444 bsw 0
Spectrum      8 integration periods
 137.956  138.148  136.968  138.494  138.375  137.830  138.253  138.134  138.727  138.524  138.681  138.416  137.601  137.928  136.963  138.409  138.575  136.968  137.697  137.317  138.708  138.027  137.652  138.335  138.972  137.534  138.448  138.473  139.286  138.372  137.895  137.825  137.751  137.391  137.387  137.358  137.148  138.227  136.774  137.361  138.425  137.975  137.357  137.432  137.070  137.761  137.832  136.761  137.617  137.328  138.549  137.716  139.029  137.448  136.853  137.538  137.860  137.223  137.888  136.816  137.926  136.844  138.698  141.283  138.145  137.626  138.039  138.609  139.986  159.135  149.948  141.731  137.656  137.439  138.111  138.316  137.932  138.328  138.016  138.405  137.721  137.357  139.033  138.800  138.557  138.602  137.583  137.866  137.854  138.438  137.668  138.359  138.187  138.243  137.599  137.684  138.972  139.248  137.369  138.208  137.359  138.056  137.974  139.135  139.670  139.696  139.755  139.847  140.462  141.792  142.187  143.427  144.739  145.957  148.701  150.246  153.059  156.614  160.368  162.619  167.100  169.860  172.364  175.882  179.836  182.092  183.960  182.537  177.866  173.414  167.106  163.515  158.171  154.805  153.399  150.314  150.141  148.485  147.604  148.779  146.034  144.994  144.219  143.932  143.014  142.395  142.628  141.863  141.427  142.413  142.405  142.458  143.989  144.173  144.954  147.162  146.184  147.584  149.888  151.323  153.868  154.291  154.976  156.057  156.245  154.863  153.055  151.932  150.089  148.843  147.755  146.923  146.274  147.169  145.423  145.247  144.375  144.415  143.484  143.388  143.233  144.012  144.086  143.814  142.534  142.219  140.673  139.607  139.781  139.714  139.714  138.586  138.963  138.403  139.181  138.636  138.703  139.019  138.458  138.566  138.681  139.151  138.800  140.211  139.200  139.288  139.149  138.104  138.354  138.755  139.250  139.235  139.495  139.697 
DATE 2017:074:10:46:35 obsn  43 az  73 el 37 freq_MHz  1420.4000 Tsys 127.050 Tant 17.066 vlsr  -29.28 glat -0.091 glon 70.118 azoff 0.00 eloff 0.00 source G70.0 
Fstart 1419.397 fstop 1421.403 spacing 0.009375 bw    2.400 fbw    2.000 MHz nfreq 256 nsam 5242880 npoint 214 integ    20 sigma    0.296 bsw 0
Spectrum     18 integration periods
 138.249  138.287  137.848  138.066  138.249  137.842  137.840  138.316  138.011  138.679  138.039  138.233  137.776  137.860  137.531  138.430  139.103  137.674  137.459  137.551  138.622  138.167  137.823  138.076  138.786  137.363  138.037  138.300  139.768  138.643  137.774  137.689  137.591  137.833  137.395  137.841  138.011  138.377  137.556  137.589  137.951  138.089  136.687  137.321  137.385  137.323  137.762  136.837  137.705  137.496  138.785  137.554  138.195  137.273  137.243  137.442  137.890  137.633  137.754  137.172  137.809  137.401  138.875  141.186  137.901  137.607  138.153  138.603  139.593  159.239  150.829  141.437  137.692  137.515  137.532  138.987  137.518  138.276  138.201  138.182  138.043  137.831  138.472  138.314  139.078  137.965  137.876  138.301  137.964  138.719  137.525  138.351  138.158  138.236  137.779  137.499  139.397  139.524  137.984  138.207  138.170  137.942  137.836  138.481  139.012  139.510  139.185  139.237  139.872  140.984  141.362  142.512  143.765  145.171  147.736  149.791  152.364  155.905  161.135  162.608  166.850  170.335  173.470  177.184  180.255  182.847  184.226  182.045  177.338  172.182  166.648  163.244  158.084  155.281  153.403  150.916  150.404  148.561  147.953  148.481  145.912  145.189  144.617  144.388  143.169  142.730  142.616  142.038  141.693  142.198  142.131  142.483  144.085  144.251  145.122  146.077  145.923  147.622  149.445  150.989  154.512  154.902  155.853  156.703  156.464  155.809  153.593  151.299  150.091  149.541  147.263  146.589  145.750  147.114  145.276  144.762  144.124  143.755  143.713  143.526  143.538  144.048  145.130  143.758  143.082  142.345  141.388  139.578  139.629  139.541  139.498  138.766  138.673  138.662  139.314  139.084  138.593  138.586  138.742  138.484  138.970  138.944  138.712  140.073  138.752  138.794  138.991  138.542  138.334  138.399  138.963  139.163  139.102  139.575 
DATE 2017:074:10:47:01 obsn  44 az  61 el 35 freq_MHz  1420.4000 Tsys 127.050 Tant 19.865 vlsr  -23.28 glat -0.057 glon 80.118 azoff 0.00 eloff 0.00 source G80.0 
Fstart 1419.397 fstop 1421.403 spacing 0.009375 bw    2.400 fbw    2.000 MHz nfreq 256 nsam 5242880 npoint 214 integ     2 sigma    0.888 bsw 0
Spectrum      2 integration periods
 139.767  138.394  136.963  138.782  138.578  137.985  139.339  140.078  137.912  139.993  139.088  139.447  138.293  138.684  138.831  137.754  139.631  138.786  137.447  139.638  139.390  138.731  139.042  139.355  139.224  139.278  138.202  138.645  139.787  138.776  136.732  138.329  137.720  138.383  138.709  137.393  138.088  138.712  138.738  138.829  136.370  138.145  138.676  138.095  137.284  138.907  138.335  138.345  140.431  140.034  137.797  137.183  137.040  137.751  138.725  137.766  137.330  137.346  138.076  138.050  136.711  138.437  138.793  141.254  139.047  139.168  138.896  139.432  140.572  150.726  146.328  141.147  138.494  137.799  139.876  139.690  138.247  138.941  137.754  136.965  139.048  137.939  138.515  137.986  139.132  139.998  138.555  138.505  137.491  139.110  137.448  139.580  137.813  138.581  138.616  138.358  139.189  138.648  140.104  138.712  138.923  137.880  137.561  138.227  138.294  139.157  139.146  139.027  140.568  138.366  141.118  142.035  144.201  144.484  147.141  147.486  152.114  158.815  163.346  167.131  175.962  179.111  182.267  185.198  187.937  189.593  191.164  186.935  183.286  177.806  172.062  167.320  162.675  159.426  159.478  156.601  153.305  152.028  150.788  151.438  148.152  148.855  149.246  147.231  148.484  146.568  148.180  146.855  145.708  146.224  146.254  145.740  144.460  146.910  148.517  151.163  149.971  150.038  151.436  153.739  158.047  156.988  156.849  158.809  159.376  159.387  154.897  152.929  151.993  151.368  149.580  147.196  147.937  147.624  144.957  145.510  144.915  144.360  145.155  144.974  145.584  144.886  146.641  144.522  144.688  144.549  142.268  142.913  141.855  141.267  141.232  140.032  141.120  138.934  140.843  138.964  141.094  141.387  139.507  141.178  141.354  139.019  139.837  140.355  140.194  139.397  141.907  138.849  138.734  141.535  140.134  140.483  141.176  140.480 
DATE 2017:074:10:47:15 obsn  45 az  61 el 35 freq_MHz  1420.4000 Tsys 127.050 Tant 19.972 vlsr  -23.28 glat -0.057 glon 80.118 azoff 0.00 eloff 0.00 source G80.0 
Fstart 1419.397 fstop 1421.403 spacing 0.009375 bw    2.400 fbw    2.000 MHz nfreq 256 nsam 5242880 npoint 214 integ    13 sigma    0.362 bsw 0
Spectrum     12 integration periods
 139.628  139.032  139.582  140.085  139.383  140.007  140.100  139.822  139.393  139.437  138.977  140.358  138.750  139.661  139.071  138.938  140.340  139.631  138.551  139.163  139.773  138.830  139.344  139.443  139.485  139.758  139.536  139.387  140.349  139.907  138.771  139.518  139.206  138.645  139.024  138.951  138.861  139.240  138.709  139.646  138.730  138.981  138.552  138.825  138.920  138.820  139.208  139.204  139.272  139.403  138.986  138.641  138.805  138.273  139.144  139.184  138.966  138.645  138.070  138.862  138.810  139.098  139.545  141.227  138.942  139.139  139.710  140.022  139.520  142.910  144.417  143.027  139.361  138.528  140.068  139.191  139.436  139.098  138.908  138.787  139.454  139.093  138.884  139.433  139.215  139.747  138.821  139.251  139.043  139.898  139.918  139.805  139.304  138.871  139.679  139.158  140.057  139.167  139.962  139.702  139.774  139.897  139.114  139.511  139.902  139.728  139.307  140.051  140.070  140.147  140.859  141.795  143.013  144.499  146.349  148.088  152.293  157.448  163.982  170.089  178.374  184.738  188.574  191.015  193.996  193.953  194.861  190.696  188.338  183.356  177.963  172.652  167.590  165.133  162.055  158.409  155.712  153.911  153.598  153.261  151.668  152.069  152.351  152.199  152.672  152.327  151.878  151.275  151.374  150.235  149.601  148.068  147.944  148.723  149.117  149.534  151.732  151.929  152.729  154.693  156.873  157.688  158.049  159.296  159.553  159.212  158.204  156.506  155.690  153.982  152.340  149.981  148.153  147.477  145.967  145.431  145.487  144.768  145.517  145.319  145.525  144.715  146.095  145.124  144.805  144.769  143.258  143.383  143.545  142.957  142.952  141.607  141.123  141.141  141.690  141.825  141.684  142.009  141.220  141.894  141.186  140.924  141.801  142.288  141.904  141.097  142.687  141.166  141.142  141.949  141.410  141.959  141.865  142.122 
DATE 2017:074:10:47:28 obsn  46 az  61 el 35 freq_MHz  1420.4000 Tsys 127.050 Tant 20.001 vlsr  -23.28 glat -0.057 glon 80.118 azoff 0.00 eloff 0.00 source G80.0 
Fstart 1419.397 fstop 1421.403 spacing 0.009375 bw    2.400 fbw    2.000 MHz nfreq 256 nsam 5242880 npoint 214 integ    24 sigma    0.268 bsw 0
Spectrum     22 integration periods
 139.709  139.495  139.161  139.910  139.238  139.956  139.771  139.881  139.836  139.468  139.216  140.158  139.101  139.523  139.189  139.404  139.779  139.754  138.942  139.507  139.745  139.455  139.338  139.386  140.268  139.608  139.322  139.232  140.156  139.961  139.292  139.591  139.505  139.192  139.296  139.142  139.322  139.400  138.750  139.351  138.914  139.002  138.735  138.862  138.958  138.896  139.045  139.025  139.075  139.040  139.269  138.867  138.715  138.631  139.165  139.048  139.246  138.844  138.402  139.135  139.217  139.372  139.857  140.927  139.430  139.181  139.689  140.216  139.881  142.211  143.875  143.202  139.321  138.822  139.718  139.459  139.790  139.222  138.943  139.357  139.271  139.509  139.246  139.537  139.595  139.831  139.141  139.322  139.434  140.046  139.837  139.583  139.816  139.345  139.258  139.618  140.219  139.615  140.347  139.566  139.762  139.872  139.166  139.687  139.883  139.986  139.639  140.035  140.269  140.366  140.971  141.803  142.747  144.301  145.981  148.383  152.330  157.511  164.388  171.003  179.224  185.208  189.071  192.155  194.879  194.930  194.926  191.404  188.918  183.820  178.700  172.746  168.250  165.412  162.245  158.614  156.192  154.241  153.989  153.269  151.548  152.159  152.722  152.651  152.552  152.366  152.312  151.913  151.418  150.823  149.729  148.417  148.762  148.808  148.910  149.959  151.632  151.813  153.025  154.566  156.565  157.651  158.341  159.385  159.588  159.344  158.263  156.588  155.652  154.042  152.552  150.143  148.379  147.216  145.913  145.195  145.435  144.863  145.406  145.333  145.459  145.128  145.847  145.078  144.693  144.928  143.745  143.147  143.316  143.018  142.853  141.938  141.556  141.265  141.839  141.598  141.581  141.921  141.737  141.470  140.924  141.360  141.720  142.216  142.123  141.926  142.944  141.346  141.353  141.812  141.520  141.945  142.029  142.122 
DATE 2017:074:10:47:55 obsn  47 az  50 el 31 freq_MHz  1420.4000 Tsys 127.050 Tant 20.674 vlsr  -16.57 glat -0.022 glon 90.118 azoff 0.00 eloff 0.00 source G90.0 
Fstart 1419.397 fstop 1421.403 spacing 0.009375 bw    2.400 fbw    2.000 MHz nfreq 256 nsam 5242880 npoint 214 integ     8 sigma    0.475 bsw 0
Spectrum      7 integration periods
 141.135  139.627  139.127  140.092  139.076  139.629  139.976  140.320  140.031  139.993  139.969  139.390  139.616  139.446  139.601  139.801  140.557  139.907  140.795  140.543  139.228  139.459  139.912  139.589  139.581  138.891  139.658  139.851  140.457  139.300  138.984  140.863  140.722  139.875  139.077  139.140  139.148  139.344  139.249  138.844  139.425  140.273  138.775  139.541  140.291  139.740  139.054  138.643  138.426  139.486  140.557  138.401  139.670  139.199  139.690  140.815  140.564  139.646  139.724  139.468  139.139  139.340  139.672  140.376  138.465  138.795  140.280  140.270  140.100  144.394  143.590  145.780  139.486  138.928  138.498  139.495  139.716  139.005  138.941  139.594  140.503  140.009  139.037  139.716  139.936  138.905  138.760  139.099  138.451  139.335  139.801  139.353  139.068  140.217  138.918  139.483  139.053  139.309  139.991  139.521  140.080  138.411  139.712  139.429  139.751  139.648  139.497  140.029  139.082  140.095  140.796  141.029  142.528  143.839  145.176  149.569  153.221  161.928  171.878  181.297  188.151  192.894  196.665  198.412  199.221  199.249  200.266  198.479  194.160  188.419  181.801  176.390  170.120  165.113  161.888  157.881  156.577  155.251  153.641  153.887  152.582  153.982  154.992  156.513  155.585  156.912  157.268  157.343  157.922  156.695  155.376  154.108  153.438  153.781  153.487  153.179  154.762  156.282  157.965  159.931  161.213  161.558  163.350  162.261  160.997  159.412  158.637  158.610  157.823  157.034  154.859  152.664  150.956  148.955  148.231  146.035  146.359  144.134  145.542  144.405  144.078  144.571  142.293  143.103  142.237  141.213  141.107  140.310  140.487  140.532  140.683  140.464  138.950  139.648  139.638  139.722  140.301  139.653  140.064  139.863  140.402  139.782  139.599  139.227  139.634  140.654  141.134  138.711  138.568  140.038  140.207  138.982  139.633  141.000 
DATE 2017:074:10:48:16 obsn  48 az  50 el 32 freq_MHz  1420.4000 Tsys 127.050 Tant 19.583 vlsr  -16.57 glat -0.022 glon 90.118 azoff 0.00 eloff 0.00 source G90.0 
Fstart 1419.397 fstop 1421.403 spacing 0.009375 bw    2.400 fbw    2.000 MHz nfreq 256 nsam 5242880 npoint 214 integ    19 sigma    0.305 bsw 0
Spectrum     17 integration periods
 140.369  139.399  139.583  139.958  139.411  139.754  139.947  140.490  140.304  139.970  139.796  139.839  139.181  139.151  139.665  139.272  139.924  140.144  140.024  140.170  139.653  139.550  139.758  139.687  139.636  139.450  139.967  139.655  140.056  139.775  139.449  139.750  139.357  139.426  139.554  139.087  139.242  139.138  139.026  138.622  139.272  139.632  138.910  138.995  139.286  139.493  139.048  139.244  138.787  139.477  139.795  138.940  138.993  139.212  139.621  139.982  140.400  139.553  139.774  139.494  138.432  139.132  139.483  140.475  138.585  138.665  139.817  140.001  139.523  143.377  144.089  146.598  139.476  139.067  138.638  140.005  139.891  138.940  139.229  139.274  139.605  139.686  139.234  139.391  139.283  138.784  139.246  139.112  139.131  139.304  139.421  139.021  139.229  139.693  138.651  139.295  139.406  139.528  139.519  139.209  139.125  138.435  138.874  139.818  138.967  139.376  139.191  139.938  139.149  139.718  140.573  141.228  141.903  143.801  145.844  148.974  153.568  161.531  172.104  181.646  188.190  193.295  196.261  197.948  199.637  200.534  200.118  198.701  193.507  188.584  182.475  176.674  170.074  164.634  161.454  158.010  156.195  154.435  153.665  153.391  152.761  153.553  154.386  155.744  155.391  156.119  156.837  156.865  156.762  156.261  155.416  153.758  152.993  152.918  152.675  152.772  154.446  155.427  157.573  159.084  160.693  161.909  161.912  162.188  160.347  159.198  157.796  157.624  157.484  156.746  155.061  152.952  150.966  148.772  147.828  146.275  145.714  144.273  144.707  144.211  143.930  143.756  142.393  142.666  141.799  141.043  141.000  140.250  140.432  140.207  139.963  139.841  139.465  139.644  139.100  139.211  139.686  139.710  139.209  139.463  140.185  139.378  139.291  139.526  139.692  140.223  140.398  139.375  138.816  139.146  139.421  138.811  139.370  139.943 
