* calibration started
* cmd out of limits az 10.000000 el 10.000000
* cmd out of limits az 10.000000 el 10.000000
* cmd out of limits az 10.000000 el 10.000000
DATE 2015:273:16:00:00 obsn   0 az  17 el -2 freq_MHz  1420.4000 Tsys 171.000 Tant 461.099 vlsr  -13.86 glat -1.919 glon 105.243 source at_stow
Fstart 1419.397 fstop 1421.403 spacing 0.009375 bw    2.400 fbw    2.000 MHz nfreq 256 nsam 5242880 npoint 214 integ     3 sigma    0.976 bsw 0
Spectrum      3 integration periods
 464.257  460.963  455.891  460.172  459.250  456.218  458.039  461.283  467.487  464.305  466.518  462.428  467.826  466.349  467.030  462.596  463.370  458.567  464.509  462.070  457.595  458.039  462.347  456.081  461.898  465.293  456.224  458.839  460.722  453.289  460.416  460.108  455.717  459.147  459.808  457.505  456.852  456.973  457.893  465.447  460.840  458.792  459.722  462.967  460.322  460.471  461.527  461.858  462.787  463.330  464.503  463.712  464.870  465.122  465.765  462.605  465.062  457.881  464.315  461.245  460.929  458.025  462.210  455.103  459.900  457.440  453.526  460.870  463.301  462.555  462.780  460.776  463.680  461.375  462.203  466.526  465.639  465.201  462.378  462.037  462.163  461.325  461.735  460.859  457.340  459.504  460.834  463.986  458.169  462.285  455.095  459.032  463.189  467.416  464.440  462.801  460.570  457.507  457.808  458.571  458.272  462.115  461.542  466.325  458.587  456.835  460.108  460.713  455.131  464.341  460.596  464.656  463.262  457.693  465.206  461.472  461.464  459.338  459.578  459.680  459.964  456.747  458.988  461.475  463.239  462.355  459.933  461.911  457.656  460.903  460.476  463.354  458.600  458.991  464.985  457.621  458.986  460.194  459.114  459.269  460.580  458.634  460.149  457.035  461.527  463.536  458.261  453.014  461.379  457.465  459.628  457.688  462.784  462.883  463.968  462.946  464.018  463.369  464.511  463.781  463.230  459.679  461.631  461.879  461.872  458.360  458.974  457.933  464.885  462.759  462.582  462.812  459.438  456.660  457.027  462.942  461.968  459.188  461.598  460.140  461.978  460.917  462.666  466.527  458.330  460.736  459.765  460.714  463.186  458.557  461.590  460.670  462.640  459.403  460.506  462.603  458.393  458.303  459.458  462.421  462.596  458.777  463.330  458.730  458.076  461.672  457.663  457.431  460.306  462.723  462.200  459.535  462.889  453.958 
* cmd out of limits az 10.000000 el 10.000000
* cmd out of limits az 10.000000 el 10.000000
* cmd out of limits az 10.000000 el 10.000000
* cmd out of limits az 10.000000 el 10.000000
* cmd out of limits az 10.000000 el 10.000000
* cmd out of limits az 10.000000 el 10.000000
* cmd out of limits az 10.000000 el 10.000000
* cmd out of limits az 10.000000 el 10.000000
* cmd out of limits az 10.000000 el 10.000000
* cmd out of limits az 10.000000 el 10.000000
DATE 2015:273:16:00:00 obsn   1 az  17 el -2 freq_MHz  1420.4000 Tsys 171.000 Tant 289.980 vlsr  -13.86 glat -1.919 glon 105.243 source at_stow
Fstart 1419.397 fstop 1421.403 spacing 0.009375 bw    2.400 fbw    2.000 MHz nfreq 256 nsam 5242880 npoint 214 integ    14 sigma    0.469 bsw 0
Spectrum     13 integration periods
 458.535  459.365  460.850  461.648  461.413  459.886  459.834  460.854  460.409  460.555  461.239  460.857  460.842  461.360  461.549  460.033  461.154  458.870  462.258  460.072  460.469  460.853  462.437  460.631  461.803  460.222  460.414  461.400  459.816  458.097  460.919  461.399  461.641  460.528  460.857  459.068  460.391  459.128  462.356  462.638  461.027  460.276  460.556  461.230  459.299  461.882  461.854  461.175  461.560  461.964  463.104  462.603  463.859  463.244  462.719  462.897  463.557  459.836  461.931  460.984  460.866  459.564  457.620  455.324  458.025  457.603  455.953  459.252  461.181  461.126  460.654  461.453  462.453  462.986  462.113  463.528  463.180  462.815  463.016  461.994  461.012  462.289  461.841  460.879  460.579  460.412  461.101  461.456  459.791  462.029  459.825  461.515  461.113  462.564  462.412  459.822  459.776  458.391  459.654  460.884  460.243  461.271  459.660  460.869  460.432  459.853  460.339  461.770  459.758  460.798  459.011  460.584  462.025  458.555  463.262  461.499  461.675  460.665  460.373  460.748  459.543  459.674  461.392  460.809  461.894  461.571  461.318  460.888  461.492  461.332  460.516  462.327  460.557  462.312  464.902  462.002  463.097  461.618  460.354  460.026  459.423  459.536  462.294  461.317  462.706  462.259  460.202  458.333  460.094  461.151  459.592  456.344  462.007  461.800  461.148  462.731  461.132  459.930  461.380  462.021  463.208  460.769  461.471  462.088  461.694  460.303  462.133  460.532  462.222  460.134  460.651  461.239  460.311  459.834  462.844  462.729  462.984  462.033  459.958  458.996  459.874  461.590  461.048  461.383  461.637  460.047  462.167  460.268  460.967  460.942  460.884  459.130  459.624  460.469  460.540  462.709  460.805  460.450  459.675  462.694  462.384  462.569  461.808  459.294  460.560  462.334  461.464  459.694  462.315  460.115  460.736  459.416  462.671  460.372 
* cmd out of limits az 10.000000 el 10.000000
* cmd out of limits az 10.000000 el 10.000000
* cmd out of limits az 10.000000 el 10.000000
* cmd out of limits az 10.000000 el 10.000000
* cmd out of limits az 10.000000 el 10.000000
* cmd out of limits az 10.000000 el 10.000000
* cmd out of limits az 10.000000 el 10.000000
* cmd out of limits az 10.000000 el 10.000000
* cmd out of limits az 10.000000 el 10.000000
* cmd out of limits az 10.000000 el 10.000000
DATE 2015:273:16:00:00 obsn   2 az  17 el -2 freq_MHz  1420.4000 Tsys 171.000 Tant 290.095 vlsr  -13.86 glat -1.919 glon 105.243 source at_stow
Fstart 1419.397 fstop 1421.403 spacing 0.009375 bw    2.400 fbw    2.000 MHz nfreq 256 nsam 5242880 npoint 214 integ    25 sigma    0.352 bsw 0
Spectrum     23 integration periods
 457.647  458.973  461.164  461.479  460.819  460.890  460.914  461.327  461.046  460.383  460.664  461.757  460.703  460.883  461.829  460.774  460.798  459.370  462.943  462.143  461.120  461.511  460.850  459.961  462.266  460.110  460.755  460.529  460.180  459.193  461.070  462.397  461.205  459.630  461.725  460.038  460.760  460.000  461.194  462.083  460.811  461.723  461.125  460.081  459.113  460.782  461.404  460.157  459.948  461.271  462.120  462.084  462.965  463.896  463.131  462.667  462.888  460.198  461.255  460.833  460.165  460.372  457.951  456.043  457.933  457.648  456.816  460.052  460.490  461.038  460.476  461.215  462.422  461.923  461.268  463.180  463.458  462.273  462.964  462.143  460.779  462.768  461.962  461.618  460.777  461.102  461.187  462.121  459.920  461.896  461.015  461.189  461.467  462.391  461.371  460.534  459.374  459.293  459.653  460.744  460.329  462.024  460.643  460.048  460.153  459.663  460.253  461.510  459.620  459.239  458.947  460.159  461.186  460.303  460.782  461.184  461.371  460.696  460.709  460.507  460.921  460.516  461.024  461.965  461.635  460.552  461.496  461.287  461.388  461.346  460.663  461.936  460.764  462.936  463.327  461.439  463.770  461.805  460.845  460.766  460.490  459.496  461.935  461.459  461.499  462.515  460.854  458.823  460.749  460.449  459.996  458.535  460.836  462.056  460.078  461.900  460.994  461.016  462.078  462.053  462.474  461.470  460.745  461.525  462.244  460.774  462.827  461.887  462.388  459.744  461.036  461.403  461.542  460.692  461.227  460.608  461.361  461.192  459.473  460.170  461.018  460.571  462.070  460.852  460.507  459.953  462.465  459.848  459.599  460.905  460.786  459.870  460.309  460.167  460.852  460.586  461.396  460.488  460.382  462.142  461.381  461.621  462.266  460.383  462.711  462.248  461.779  459.803  462.120  459.761  460.118  458.436  461.162  461.776 
* cmd out of limits az 10.000000 el 10.000000
* cmd out of limits az 10.000000 el 10.000000
* cmd out of limits az 10.000000 el 10.000000
* cmd out of limits az 10.000000 el 10.000000
* cmd out of limits az 10.000000 el 10.000000
* cmd out of limits az 10.000000 el 10.000000
* cmd out of limits az 10.000000 el 10.000000
* cmd out of limits az 10.000000 el 10.000000
* cmd out of limits az 10.000000 el 10.000000
* cmd out of limits az 10.000000 el 10.000000
DATE 2015:273:16:00:00 obsn   3 az  17 el -2 freq_MHz  1420.4000 Tsys 171.000 Tant 290.653 vlsr  -13.86 glat -1.919 glon 105.243 source at_stow
Fstart 1419.397 fstop 1421.403 spacing 0.009375 bw    2.400 fbw    2.000 MHz nfreq 256 nsam 5242880 npoint 214 integ    36 sigma    0.294 bsw 0
Spectrum     33 integration periods
 456.873  459.621  461.614  461.635  460.927  460.341  460.886  460.917  460.936  460.369  460.974  461.287  460.140  460.735  461.732  461.350  461.135  460.123  462.497  462.736  461.389  462.205  460.515  459.631  462.392  460.105  460.721  460.285  459.866  459.380  460.832  462.138  461.308  460.648  461.299  461.390  460.694  460.231  461.207  461.841  460.442  462.087  460.882  460.038  459.197  461.513  461.075  460.438  459.805  461.082  462.277  462.065  462.280  462.628  462.450  462.976  462.469  460.652  461.431  460.251  459.381  459.800  458.207  457.021  457.706  457.582  457.360  460.198  460.785  461.373  460.490  460.303  461.732  461.697  461.444  463.515  463.739  462.681  461.911  461.596  461.844  462.687  461.477  462.078  461.074  461.084  460.395  461.877  460.394  461.514  460.811  460.734  461.331  461.812  461.297  459.848  459.258  459.403  460.032  460.581  460.856  461.115  461.666  460.170  460.073  459.612  460.246  461.018  459.580  459.734  459.546  459.990  461.088  460.798  460.235  461.365  460.681  460.824  461.359  461.118  460.411  460.831  460.234  461.213  461.822  460.400  461.335  460.825  461.367  461.041  460.950  461.813  461.078  462.746  463.143  461.843  463.098  462.337  460.236  461.503  460.473  460.225  461.820  461.394  461.861  461.947  460.903  459.836  460.233  460.362  460.161  460.119  460.621  460.899  460.620  461.266  460.614  461.511  461.948  461.865  461.944  461.122  461.089  461.739  461.963  461.563  462.339  461.670  462.477  459.372  461.578  461.230  462.323  460.121  461.283  460.753  461.641  461.478  459.743  459.867  461.176  460.131  461.806  461.046  460.472  459.954  462.742  459.613  459.520  459.828  460.375  459.742  460.532  460.722  461.383  460.333  461.632  460.659  460.094  462.084  460.447  461.385  461.633  460.360  462.490  462.107  461.265  460.090  461.340  459.029  459.617  459.713  460.573  461.801 
* cmd out of limits az 10.000000 el 10.000000
* cmd out of limits az 10.000000 el 10.000000
* cmd out of limits az 10.000000 el 10.000000
* cmd out of limits az 10.000000 el 10.000000
* cmd out of limits az 10.000000 el 10.000000
* cmd out of limits az 10.000000 el 10.000000
* cmd out of limits az 10.000000 el 10.000000
* cmd out of limits az 10.000000 el 10.000000
* cmd out of limits az 10.000000 el 10.000000
* cmd out of limits az 10.000000 el 10.000000
DATE 2015:273:16:00:00 obsn   4 az  17 el -2 freq_MHz  1420.4000 Tsys 171.000 Tant 290.309 vlsr  -13.86 glat -1.919 glon 105.243 source at_stow
Fstart 1419.397 fstop 1421.403 spacing 0.009375 bw    2.400 fbw    2.000 MHz nfreq 256 nsam 5242880 npoint 214 integ    47 sigma    0.258 bsw 0
Spectrum     43 integration periods
 456.995  459.528  461.695  461.572  461.025  460.213  460.278  460.870  460.587  460.403  460.966  460.784  459.993  461.203  461.823  460.901  461.054  460.293  462.215  462.426  461.761  461.576  460.292  459.833  461.639  459.950  460.119  460.407  459.897  459.891  461.584  461.210  460.925  461.243  461.447  461.863  461.125  459.645  460.687  461.177  460.466  461.706  460.875  460.060  459.347  462.160  461.002  460.353  460.793  461.364  461.860  461.798  462.452  462.759  462.533  462.206  462.351  460.584  461.288  459.894  459.913  458.981  458.126  457.963  457.879  457.542  457.685  460.040  461.058  461.099  460.000  461.068  461.814  461.494  461.188  463.216  463.485  462.511  462.092  461.792  461.954  462.300  461.609  462.545  461.391  461.440  460.651  462.272  460.354  460.735  461.166  460.676  460.785  461.639  461.544  460.254  459.389  460.413  460.222  460.277  460.945  460.972  461.182  460.080  459.709  460.289  460.496  461.066  459.361  459.942  460.471  459.909  461.276  460.781  460.232  461.553  460.607  460.514  461.137  461.481  460.373  461.083  460.314  460.670  461.422  460.922  461.692  460.605  461.195  461.151  461.030  461.773  461.264  462.522  463.192  461.750  462.776  462.353  460.732  461.459  461.202  460.857  462.296  461.727  462.145  462.281  460.868  460.033  460.049  460.066  460.290  459.974  460.835  460.656  460.797  461.185  460.798  461.267  461.806  461.445  461.532  461.214  461.184  461.795  461.878  462.376  462.467  461.248  461.832  459.682  461.387  461.053  462.342  460.593  461.309  460.921  461.723  461.571  460.821  460.585  461.557  460.016  461.394  461.227  460.612  459.583  461.451  459.542  459.301  459.709  460.227  460.235  460.743  460.748  461.063  460.219  461.786  460.884  459.832  461.942  460.829  461.744  461.854  460.604  462.014  462.555  460.964  460.387  461.388  459.799  459.399  459.786  461.029  462.050 
* cmd out of limits az 10.000000 el 10.000000
DATE 2015:273:16:00:00 obsn   5 az 262 el 12 freq_MHz  1420.4000 Tsys 171.000 Tant  1.902 vlsr  -11.57 glat  0.166 glon 210.104 source G210 
Fstart 1419.397 fstop 1421.403 spacing 0.009375 bw    2.400 fbw    2.000 MHz nfreq 256 nsam 5242880 npoint 214 integ     9 sigma    0.597 bsw 0
Spectrum      8 integration periods
 206.556  208.622  208.013  208.910  210.296  209.075  209.504  209.455  209.630  208.292  208.212  208.477  210.759  208.964  209.462  208.390  208.673  209.042  208.025  208.806  208.547  208.707  209.027  208.416  208.301  209.366  208.610  209.709  208.794  210.382  208.924  208.117  207.755  208.658  210.278  210.166  209.555  209.193  208.553  209.420  207.066  209.061  207.468  209.028  208.418  208.400  209.830  209.469  208.021  209.245  209.224  209.775  209.870  209.020  209.473  208.421  210.624  209.652  209.428  209.103  207.576  208.057  207.151  208.069  207.762  206.667  208.684  207.977  207.505  208.908  208.680  209.761  209.490  209.900  209.201  209.325  208.604  210.678  210.889  209.849  207.989  208.961  210.211  209.072  209.951  208.124  208.235  209.078  207.305  210.097  208.692  209.998  207.416  209.056  209.981  208.941  208.788  208.414  208.486  208.903  210.120  209.522  207.504  209.323  209.041  208.292  209.224  208.602  208.988  207.740  209.072  208.120  207.654  209.037  208.841  207.649  208.882  210.674  209.584  207.923  208.892  207.871  209.604  208.568  209.567  208.846  209.313  209.771  209.938  208.736  209.189  208.616  209.267  208.664  208.358  208.885  209.603  210.911  208.375  207.800  209.531  210.584  209.489  209.052  209.003  207.839  210.258  208.562  207.700  207.789  208.726  208.759  208.369  210.044  208.677  209.390  208.552  209.257  209.067  210.690  209.800  208.356  207.433  209.553  209.526  209.635  210.105  209.723  210.022  208.273  209.026  208.265  209.161  210.137  208.743  208.868  210.156  210.183  209.318  209.565  209.496  209.391  208.316  209.496  208.809  208.523  208.695  208.461  206.822  207.628  210.599  208.794  208.670  208.510  207.472  209.014  209.636  210.698  207.939  208.096  208.667  209.182  210.576  209.702  208.121  209.184  208.668  208.019  207.985  208.300  209.449  207.652  208.896  210.083 
DATE 2015:273:16:00:00 obsn   6 az 262 el 12 freq_MHz  1420.4000 Tsys 171.000 Tant  1.761 vlsr  -11.57 glat  0.166 glon 210.104 source G210 
Fstart 1419.397 fstop 1421.403 spacing 0.009375 bw    2.400 fbw    2.000 MHz nfreq 256 nsam 5242880 npoint 214 integ    20 sigma    0.398 bsw 0
Spectrum     18 integration periods
 186.817  188.697  188.596  188.953  189.411  189.136  189.050  189.252  188.800  188.068  188.392  188.969  189.849  188.603  189.279  188.878  189.291  188.946  188.957  188.785  188.730  189.157  188.840  188.116  188.250  188.911  188.200  188.653  188.693  189.944  188.298  188.265  188.624  188.259  189.751  189.279  189.061  189.854  188.706  188.993  187.723  189.186  188.342  189.128  188.687  187.893  188.821  189.112  188.692  189.033  188.821  188.994  189.309  188.989  188.889  188.838  190.254  189.386  189.300  189.073  187.812  188.590  187.928  188.107  187.595  186.875  188.035  187.881  188.694  188.734  188.341  189.340  189.426  189.969  189.116  189.207  189.338  189.553  189.775  189.708  189.257  189.391  189.710  189.428  190.202  188.521  189.169  188.825  187.964  189.027  188.567  189.544  188.222  188.848  189.594  188.793  188.439  188.059  188.745  188.699  189.536  189.307  188.151  188.691  188.848  188.308  188.752  188.475  188.450  188.061  189.056  187.692  188.398  188.250  188.345  188.515  188.533  189.287  189.475  188.828  189.069  187.815  188.811  188.814  189.762  188.512  189.209  189.419  189.265  188.927  188.933  189.044  189.099  188.787  188.823  189.223  189.591  189.814  188.977  188.663  189.248  189.874  188.903  188.850  188.481  188.352  189.550  188.205  188.078  187.705  188.177  189.014  188.719  189.432  188.613  188.830  188.770  188.909  188.809  189.653  189.178  188.597  188.177  189.206  189.369  189.042  189.410  188.483  188.557  189.064  188.957  188.090  188.836  189.175  188.415  188.523  189.497  189.484  188.814  189.437  189.238  188.709  188.716  189.103  188.956  188.349  188.490  188.442  187.183  187.911  189.217  188.590  188.420  188.778  187.547  188.781  189.245  189.488  188.747  188.458  188.852  188.966  189.858  189.229  188.663  189.309  189.235  188.141  188.471  188.234  189.007  188.430  188.759  189.313 
DATE 2015:273:16:00:00 obsn   7 az 262 el 12 freq_MHz  1420.4000 Tsys 171.000 Tant  1.772 vlsr  -11.57 glat  0.166 glon 210.104 source G210 
Fstart 1419.397 fstop 1421.403 spacing 0.009375 bw    2.400 fbw    2.000 MHz nfreq 256 nsam 5242880 npoint 214 integ    31 sigma    0.319 bsw 0
Spectrum     28 integration periods
 181.712  182.623  182.924  182.966  183.472  183.147  183.273  183.418  182.629  182.176  182.698  183.331  183.926  183.167  183.697  183.277  183.766  183.478  183.449  183.240  183.173  183.230  183.007  183.045  182.482  183.486  182.687  182.813  182.709  183.602  182.933  182.529  183.094  183.035  183.985  183.327  183.159  184.076  183.094  183.270  182.464  183.098  182.825  182.906  182.904  182.481  182.890  183.074  183.004  183.339  182.949  183.092  183.486  183.662  183.432  183.414  184.137  183.715  183.642  182.982  182.106  182.497  182.249  182.203  181.827  181.531  182.468  181.960  182.902  182.858  182.627  183.157  183.570  183.750  183.297  183.345  183.863  183.994  184.162  183.707  183.580  183.547  183.908  183.632  184.111  183.081  183.516  183.147  182.566  183.279  182.932  183.559  182.700  183.012  183.702  183.040  182.923  182.517  182.748  182.835  183.705  183.161  182.470  182.837  182.757  182.815  182.666  182.625  182.835  182.503  183.019  182.621  182.708  182.654  182.675  182.654  183.169  183.665  183.502  183.160  183.602  182.565  183.280  183.383  183.707  183.171  183.893  183.856  183.504  183.150  183.206  183.285  183.622  183.284  183.271  183.511  183.942  183.952  183.184  182.832  183.574  183.903  183.253  183.242  182.911  182.598  183.572  182.631  182.289  182.171  182.493  183.074  183.063  183.719  183.067  182.750  183.034  183.310  183.057  183.782  183.414  182.977  182.941  183.628  183.456  183.210  183.210  182.852  182.852  183.271  183.260  182.826  182.918  183.292  182.792  183.033  183.418  183.667  182.846  183.291  183.425  182.774  182.984  183.391  183.133  182.516  182.644  182.643  181.782  182.386  183.261  183.178  182.474  183.216  182.085  182.902  183.211  183.634  183.077  183.022  182.925  183.342  183.699  183.471  183.396  183.497  183.236  182.755  182.725  182.407  182.835  182.822  182.687  183.157 
DATE 2015:273:16:00:00 obsn   1 az 167 el 44 freq_MHz  1420.4000 Tsys 171.000 Tant 457.393 vlsr   -2.37 glat 59.449 glon 290.565 source Sun 
Fstart 1419.397 fstop 1421.403 spacing 0.009375 bw    2.400 fbw    2.000 MHz nfreq 256 nsam 5242880 npoint 214 integ    51 sigma    0.246 bsw 0
Spectrum     47 integration periods
 267.003  278.789  289.807  301.094  312.656  323.199  333.987  344.681  355.948  365.326  374.928  383.992  393.142  402.840  410.740  421.136  425.950  433.232  439.492  446.831  451.599  457.226  460.264  465.023  470.238  471.947  474.494  477.688  478.930  480.959  483.100  482.250  483.040  481.566  483.643  481.400  480.449  479.393  477.284  478.635  476.151  473.427  472.123  470.219  468.732  467.052  463.856  462.209  460.009  459.494  455.894  454.201  454.011  452.326  450.652  449.811  446.973  446.072  445.499  445.499  444.331  443.316  443.025  448.019  444.590  443.351  443.629  444.964  445.270  446.812  460.261  450.182  450.068  451.918  454.063  456.055  457.365  458.883  460.436  464.532  467.034  466.072  469.920  472.917  476.020  480.215  479.750  483.652  486.684  489.596  491.944  493.632  495.074  497.586  500.436  501.949  502.986  505.042  505.872  509.465  510.608  511.768  513.627  512.960  513.423  517.198  514.426  515.159  514.938  514.763  513.451  513.222  513.083  509.591  509.492  508.935  507.582  504.835  503.763  501.010  499.915  496.721  493.948  493.268  490.684  488.370  484.846  481.151  477.966  483.909  474.746  472.017  469.117  465.854  464.226  461.936  459.597  456.641  454.857  452.833  451.364  450.762  447.156  445.038  444.708  444.568  443.403  441.171  440.187  441.006  440.653  442.472  441.954  441.039  443.095  752.039  445.175  442.845  444.021  445.911  446.073  447.203  448.065  448.750  451.558  452.943  457.220  456.479  458.380  461.532  462.907  464.701  465.013  466.756  469.977  470.631  471.827  472.729  474.257  474.725  474.013  476.305  474.903  474.686  473.808  473.151  473.213  469.351  467.004  463.328  460.617  457.372  452.556  448.034  443.304  437.767  431.934  425.949  418.863  410.530  402.511  396.008  387.604  377.095  366.501  357.082  347.650  338.411  327.666  315.761  305.239  295.763  284.786  272.842 
DATE 2015:273:16:00:00 obsn   2 az 167 el 44 freq_MHz  1420.4000 Tsys 171.000 Tant 430.522 vlsr   -2.37 glat 59.449 glon 290.565 source Sun 
Fstart 1419.397 fstop 1421.403 spacing 0.009375 bw    2.400 fbw    2.000 MHz nfreq 256 nsam 5242880 npoint 214 integ    62 sigma    0.224 bsw 0
Spectrum     57 integration periods
 265.408  277.007  287.898  299.127  310.384  321.034  331.619  342.417  353.233  362.835  372.581  381.251  390.341  399.645  407.926  417.814  423.207  429.956  436.627  443.836  448.799  454.228  456.799  462.033  466.855  468.598  471.727  474.525  475.908  477.262  479.261  478.953  479.310  478.107  479.909  477.867  477.112  476.457  473.852  474.880  472.993  469.728  469.153  466.526  465.507  463.588  460.576  458.737  456.959  456.345  452.852  450.993  450.624  448.687  447.550  446.523  444.078  442.615  441.972  442.331  441.095  439.993  440.270  446.230  441.495  440.449  440.829  441.782  442.422  443.168  458.225  446.909  446.909  448.677  451.249  453.198  454.319  456.420  457.281  461.325  463.686  463.024  467.051  469.550  472.941  476.611  476.118  480.158  483.327  486.165  488.365  490.083  491.999  494.159  497.228  498.394  500.029  501.705  502.852  505.892  506.915  508.203  509.794  509.341  510.110  513.294  511.589  511.350  511.029  511.600  509.975  509.569  509.401  506.283  505.930  505.762  503.773  501.885  500.065  497.597  496.614  493.378  491.054  489.972  487.222  485.007  481.076  477.790  474.286  480.734  471.681  468.857  465.647  463.151  460.840  458.571  456.884  454.029  451.708  449.872  448.070  447.427  444.112  442.114  441.697  441.599  440.818  438.058  437.758  437.519  437.556  439.332  438.996  438.141  439.965  724.571  442.094  439.827  441.199  442.882  443.465  444.215  445.034  445.799  448.627  449.702  453.953  453.534  455.639  458.300  459.928  462.099  462.402  463.743  466.819  467.988  468.782  469.630  471.528  471.809  470.972  472.917  472.159  471.601  470.969  469.868  469.915  466.495  464.121  460.500  458.077  454.708  450.390  444.924  440.990  435.380  429.291  423.225  416.233  407.748  400.445  393.270  384.874  374.872  364.916  355.103  345.483  335.960  325.709  313.990  303.466  293.795  283.057  271.104 
DATE 2015:273:16:00:00 obsn   3 az 167 el 44 freq_MHz  1420.4000 Tsys 171.000 Tant 454.986 vlsr   -2.37 glat 59.449 glon 290.565 source Sun 
Fstart 1419.397 fstop 1421.403 spacing 0.009375 bw    2.400 fbw    2.000 MHz nfreq 256 nsam 5242880 npoint 214 integ    73 sigma    0.206 bsw 0
Spectrum     67 integration periods
 265.810  277.443  288.247  299.717  310.955  321.516  332.095  343.267  353.748  363.723  373.204  382.069  391.179  400.499  408.684  418.221  424.103  430.993  437.536  444.376  449.693  454.805  457.893  462.971  467.573  469.298  472.463  475.652  477.061  478.033  479.654  479.654  480.059  478.953  481.219  478.786  477.671  477.417  474.440  475.108  473.634  470.835  469.922  467.144  466.391  464.225  461.022  459.453  457.771  456.789  453.545  451.559  451.370  449.266  448.687  446.917  444.796  443.305  442.684  442.755  441.623  440.401  440.923  446.762  441.783  441.106  441.510  442.295  443.318  444.163  460.792  447.569  447.550  449.424  451.783  453.657  454.947  457.172  458.136  462.051  464.182  464.065  467.619  470.440  473.127  477.000  477.214  480.703  483.810  486.665  488.690  490.643  492.846  494.835  497.460  499.484  500.803  502.469  503.696  506.409  507.470  508.995  510.453  509.644  510.485  514.101  512.076  512.085  511.316  511.917  510.215  510.234  509.833  507.341  506.506  506.641  504.005  502.340  500.542  497.960  497.344  494.098  491.381  490.730  487.428  484.967  481.714  478.111  474.971  481.502  472.332  469.242  465.881  463.899  461.669  459.097  457.263  454.363  452.184  450.905  448.332  447.850  444.582  442.867  442.101  441.779  441.274  438.512  438.279  437.821  438.159  439.731  439.356  438.817  440.463  727.809  442.584  440.430  441.637  442.941  444.033  444.549  445.505  446.212  449.130  450.276  454.252  453.402  456.030  458.736  460.305  462.254  462.921  464.151  467.151  468.350  469.141  470.135  472.349  472.259  471.601  473.280  472.636  471.629  471.163  470.077  469.595  466.878  464.656  460.842  458.212  455.358  450.665  445.537  441.808  435.790  430.029  423.519  416.653  408.165  400.608  393.466  384.760  375.176  365.376  355.468  345.789  336.232  325.857  314.241  303.804  294.198  283.050  271.264 
DATE 2015:273:16:00:00 obsn   4 az 167 el 44 freq_MHz  1420.4000 Tsys 171.000 Tant 453.329 vlsr   -2.37 glat 59.449 glon 290.565 source Sun 
Fstart 1419.397 fstop 1421.403 spacing 0.009375 bw    2.400 fbw    2.000 MHz nfreq 256 nsam 5242880 npoint 214 integ    84 sigma    0.193 bsw 0
Spectrum     77 integration periods
 266.312  278.246  289.010  300.277  311.558  322.406  332.964  343.987  354.431  364.282  373.746  383.233  392.290  401.333  409.436  418.967  424.781  431.923  438.196  445.326  450.616  455.472  458.925  463.876  468.685  470.738  473.436  476.313  478.528  479.450  480.781  480.439  481.023  479.937  482.152  479.743  478.755  478.266  475.613  475.907  474.719  471.686  470.728  468.220  467.352  465.066  462.042  460.305  458.730  457.893  454.721  452.533  452.363  450.261  449.176  447.874  445.700  444.031  443.626  443.684  442.530  441.328  441.750  446.729  442.444  441.681  442.250  443.098  443.958  444.936  467.367  448.875  448.337  450.342  452.673  454.396  455.563  457.778  459.262  462.695  464.706  465.028  468.423  471.143  474.158  477.927  478.349  481.520  484.699  487.739  489.633  491.868  493.377  495.799  498.793  500.594  501.954  503.294  504.703  506.864  508.217  509.589  511.406  510.503  511.653  514.775  512.938  513.185  512.302  513.058  510.959  511.628  510.618  507.876  507.323  507.494  505.454  502.908  500.985  498.998  498.033  494.903  492.022  492.019  488.380  485.757  482.352  478.931  476.197  482.386  473.118  470.231  466.788  464.584  462.688  459.688  458.069  455.105  452.786  451.975  448.958  448.725  445.626  443.852  442.688  442.608  441.875  439.380  439.168  438.580  438.693  440.017  440.237  439.721  440.938  736.080  443.202  441.373  442.342  443.754  444.971  445.519  446.287  447.118  449.759  451.208  455.144  454.380  456.619  459.301  461.161  463.073  463.783  465.333  467.735  469.121  469.920  470.658  472.495  473.109  472.644  473.757  473.709  472.182  472.049  471.006  470.352  467.656  465.469  461.961  458.782  455.864  451.142  446.257  442.586  436.440  430.889  424.344  417.477  409.085  401.364  394.326  385.247  375.698  365.948  356.096  346.355  336.761  326.445  314.905  304.228  294.640  283.557  271.753 
DATE 2015:273:16:00:00 obsn   5 az 167 el 44 freq_MHz  1420.4000 Tsys 171.000 Tant 451.497 vlsr   -2.37 glat 59.449 glon 290.565 source Sun 
Fstart 1419.397 fstop 1421.403 spacing 0.009375 bw    2.400 fbw    2.000 MHz nfreq 256 nsam 5242880 npoint 214 integ    95 sigma    0.181 bsw 0
Spectrum     87 integration periods
 266.551  278.422  289.298  300.608  311.687  322.843  333.287  344.274  354.687  364.420  373.979  383.584  392.840  401.380  409.774  419.316  425.123  432.270  438.704  445.626  450.983  455.966  459.557  463.911  468.861  470.999  473.749  476.509  479.350  479.905  480.980  480.774  481.178  480.435  482.278  480.290  479.224  479.048  476.491  476.373  474.993  472.277  471.033  468.520  467.699  465.612  462.377  460.724  459.159  457.944  455.379  452.688  452.490  450.337  449.495  448.006  446.021  444.489  443.915  444.003  442.755  441.894  442.416  446.472  442.886  441.942  442.500  443.330  444.471  445.393  468.761  449.330  448.916  450.925  452.807  455.191  456.049  458.253  459.735  462.854  465.329  465.640  469.123  471.731  475.015  478.269  478.830  481.826  485.061  488.003  490.289  492.327  493.973  496.174  498.548  501.135  502.792  503.988  505.277  507.365  508.384  510.429  511.698  511.152  512.260  515.462  513.536  513.605  512.922  513.667  511.552  511.973  510.820  508.137  507.647  507.376  506.235  503.423  502.004  499.839  498.503  495.643  492.664  492.322  488.919  486.320  483.023  479.298  476.693  483.031  473.679  470.514  466.939  464.832  462.918  459.991  458.412  455.387  452.948  452.399  449.395  449.202  446.140  444.562  442.961  442.765  442.406  440.014  439.763  439.107  438.890  440.289  440.638  440.089  441.501  733.702  443.397  441.535  442.790  444.305  445.837  445.859  446.831  447.883  450.052  451.995  455.133  455.026  457.274  459.928  461.574  463.411  464.438  466.317  468.244  469.522  470.327  471.281  473.084  473.498  473.298  474.263  474.784  472.965  472.668  471.501  471.176  468.418  466.056  462.438  459.389  456.384  451.896  446.840  443.398  437.028  431.445  424.712  417.822  409.711  401.927  394.620  385.936  376.505  366.363  356.434  346.797  337.358  326.882  315.311  304.579  295.092  284.078  272.066 
DATE 2015:273:16:00:00 obsn   6 az 167 el 44 freq_MHz  1420.4000 Tsys 171.000 Tant 452.063 vlsr   -2.37 glat 59.449 glon 290.565 source Sun 
Fstart 1419.397 fstop 1421.403 spacing 0.009375 bw    2.400 fbw    2.000 MHz nfreq 256 nsam 5242880 npoint 214 integ   106 sigma    0.172 bsw 0
Spectrum     97 integration periods
 266.599  278.066  289.152  300.579  311.246  322.421  333.034  343.737  354.334  363.934  373.565  383.182  392.518  401.072  409.381  419.008  424.894  432.015  438.239  445.137  450.738  455.796  459.382  463.630  468.255  470.618  473.650  476.098  478.822  479.545  480.423  480.447  480.918  480.269  481.606  479.559  478.899  478.422  476.204  475.905  474.373  472.299  470.709  468.300  467.207  464.979  461.985  460.479  458.785  457.713  455.169  452.461  452.046  449.825  449.212  447.675  445.650  444.008  443.661  443.591  442.390  441.702  442.192  445.611  442.526  441.217  442.142  442.985  443.784  444.855  467.222  448.993  448.720  450.507  452.104  454.709  455.733  457.711  459.406  462.077  465.104  465.161  468.702  471.292  474.753  477.581  478.597  481.558  484.458  487.465  489.820  491.833  493.483  495.707  498.129  500.619  502.535  503.466  504.819  506.934  508.265  509.971  511.311  510.935  511.782  515.120  513.024  513.097  512.429  513.313  511.177  511.263  510.206  507.923  507.189  506.939  505.692  503.144  501.814  499.528  498.286  495.427  492.184  491.637  488.426  485.834  482.651  479.109  476.119  482.461  473.110  470.063  466.479  464.100  462.146  459.630  458.136  454.713  452.354  452.046  448.889  448.894  445.563  443.997  442.555  442.362  441.770  439.352  439.476  438.622  438.649  439.797  440.413  439.545  440.942  733.231  443.121  441.009  442.440  443.773  445.446  445.365  446.414  447.566  449.643  451.691  454.469  454.400  456.790  459.603  461.267  462.891  464.041  465.858  467.760  469.103  469.990  470.620  472.426  473.260  472.856  473.755  474.392  472.310  472.388  471.051  470.833  467.987  465.667  461.929  459.085  455.581  451.442  446.218  443.133  436.654  431.045  424.353  417.452  409.524  401.583  394.406  385.480  376.407  366.359  356.378  346.726  337.156  326.663  315.164  304.401  294.901  283.686  271.744 
DATE 2015:273:16:00:00 obsn   7 az 167 el 44 freq_MHz  1420.4000 Tsys 171.000 Tant 449.678 vlsr   -2.37 glat 59.449 glon 290.565 source Sun 
Fstart 1419.397 fstop 1421.403 spacing 0.009375 bw    2.400 fbw    2.000 MHz nfreq 256 nsam 5242880 npoint 214 integ   117 sigma    0.163 bsw 0
Spectrum    107 integration periods
 266.594  278.119  289.110  300.638  311.323  322.413  332.936  343.774  354.369  364.007  373.737  383.037  392.337  401.084  409.233  418.996  424.838  431.969  438.146  445.090  450.676  455.633  459.277  463.547  468.143  470.695  473.380  475.879  478.728  479.492  480.735  480.566  480.916  480.204  481.625  479.394  478.785  478.250  476.157  475.744  474.348  472.322  470.660  468.155  467.066  464.649  461.797  460.566  458.800  457.368  454.981  452.443  451.964  450.006  448.950  447.519  445.614  444.085  443.575  443.599  442.441  441.597  442.217  445.083  442.576  441.201  442.202  442.846  443.755  444.817  467.177  449.064  448.567  450.199  452.200  454.756  455.588  457.593  459.372  462.161  464.917  465.249  468.650  471.358  474.862  477.491  478.841  481.616  484.345  487.406  489.784  491.752  493.646  495.720  498.279  500.754  502.523  503.660  505.071  506.918  508.298  510.198  511.464  511.171  511.819  515.088  512.989  513.174  512.635  513.355  511.179  511.028  509.975  507.980  507.392  507.102  505.910  503.183  501.911  499.441  498.240  495.399  492.521  491.769  488.253  485.863  482.667  478.951  476.206  482.262  473.234  470.020  466.327  464.064  462.220  459.683  458.110  454.719  452.388  452.046  449.119  448.823  445.633  443.982  442.712  442.480  441.865  439.614  439.404  438.779  438.635  439.849  440.291  439.516  440.803  730.639  443.186  440.960  442.426  443.853  445.496  445.378  446.544  447.690  449.645  451.487  454.449  454.484  456.927  459.870  461.111  463.047  464.089  466.007  467.564  469.091  470.067  470.779  472.209  473.331  473.051  474.072  474.495  472.324  472.608  471.066  470.760  468.102  465.776  462.193  459.015  455.676  451.622  446.262  443.224  436.526  431.066  424.231  417.326  409.444  401.820  394.451  385.694  376.448  366.472  356.332  346.829  337.163  326.676  315.156  304.455  294.723  283.520  271.749 
DATE 2015:273:16:00:00 obsn   8 az 167 el 44 freq_MHz  1420.4000 Tsys 171.000 Tant 452.119 vlsr   -2.37 glat 59.449 glon 290.565 source Sun 
Fstart 1419.397 fstop 1421.403 spacing 0.009375 bw    2.400 fbw    2.000 MHz nfreq 256 nsam 5242880 npoint 214 integ   128 sigma    0.156 bsw 0
Spectrum    117 integration periods
 266.808  278.281  289.345  300.823  311.629  322.638  333.191  344.165  354.406  364.155  373.875  383.376  392.612  401.335  409.460  419.117  425.267  432.275  438.523  445.508  450.759  456.016  459.604  463.695  468.625  471.222  473.903  476.396  478.959  479.933  481.072  480.637  481.300  480.788  481.801  479.726  478.996  478.532  476.539  475.918  474.504  472.928  470.928  468.360  467.320  464.952  462.045  461.128  458.940  457.750  455.400  452.822  452.172  450.056  449.499  447.767  445.983  444.481  443.916  443.809  442.671  441.905  442.682  445.230  442.925  441.504  442.742  442.970  443.924  445.178  466.729  449.274  448.875  450.516  452.418  455.118  455.931  457.844  459.815  462.489  465.310  465.637  468.831  471.618  474.986  477.815  479.383  482.197  484.786  487.841  490.076  492.196  493.950  495.970  498.818  501.058  502.930  503.853  505.591  507.307  508.844  510.449  511.633  511.508  512.165  515.278  513.352  513.728  512.890  513.557  511.662  511.496  510.299  508.297  507.842  507.510  506.218  503.579  502.391  499.796  498.588  495.847  493.135  491.929  488.582  486.389  482.955  479.326  476.895  482.688  473.493  470.312  466.635  464.412  462.363  459.966  458.371  454.895  452.724  452.154  449.583  449.027  446.082  444.389  443.173  443.018  442.203  439.929  439.806  439.358  438.932  439.960  440.620  439.696  441.154  730.589  443.508  441.275  443.003  444.357  445.800  445.687  446.992  448.199  450.081  451.938  454.749  454.707  457.238  460.047  461.545  463.318  464.335  466.467  468.171  469.680  470.553  471.381  472.594  473.711  473.656  474.452  474.865  472.801  472.949  471.190  471.203  468.268  466.151  462.655  459.526  456.309  451.815  446.719  443.398  436.858  431.458  424.588  417.565  409.653  402.204  394.695  386.037  376.972  366.686  356.681  347.189  337.606  326.949  315.426  304.753  294.948  283.643  271.849 
DATE 2015:273:16:00:00 obsn   9 az 167 el 44 freq_MHz  1420.4000 Tsys 171.000 Tant 451.775 vlsr   -2.37 glat 59.449 glon 290.565 source Sun 
Fstart 1419.397 fstop 1421.403 spacing 0.009375 bw    2.400 fbw    2.000 MHz nfreq 256 nsam 5242880 npoint 214 integ   139 sigma    0.150 bsw 0
Spectrum    127 integration periods
 267.178  278.653  289.821  301.041  312.088  323.034  333.588  344.603  354.846  364.694  374.302  383.817  393.230  402.001  410.092  419.683  425.842  433.038  439.099  446.206  451.246  456.520  460.322  464.562  469.023  471.857  474.762  477.094  479.616  480.596  481.563  481.497  481.939  481.434  482.315  480.418  479.652  479.240  477.293  476.668  475.142  473.367  471.549  468.971  467.817  465.399  462.466  461.634  459.500  458.519  455.990  453.360  452.668  450.716  450.175  448.030  446.512  445.267  444.543  444.341  443.304  442.397  443.226  445.515  443.591  442.057  443.138  443.711  444.377  445.694  467.753  449.759  449.498  450.998  452.871  455.773  456.691  458.480  460.380  463.361  465.900  466.353  469.446  472.425  475.559  478.601  480.202  482.660  485.422  488.223  490.697  492.933  494.569  496.625  499.631  501.723  503.728  504.597  506.277  507.818  509.443  511.065  512.136  512.212  513.001  515.820  513.913  514.452  513.749  514.278  512.519  512.382  510.823  509.062  508.468  508.218  506.992  504.261  503.274  500.470  499.415  496.561  493.802  492.515  489.337  487.127  483.742  480.218  477.582  483.193  474.209  470.801  467.387  465.082  462.916  460.562  459.076  455.629  453.401  452.859  450.145  449.463  446.653  444.897  443.849  443.606  442.620  440.810  440.468  439.996  439.315  440.524  441.059  440.187  441.673  732.103  444.313  442.094  443.799  445.009  446.527  446.477  447.608  448.968  450.920  452.684  455.379  455.360  457.930  460.755  462.359  464.083  464.754  467.034  468.864  470.115  471.366  472.170  473.324  474.517  474.600  475.306  475.622  473.427  473.791  471.850  471.869  468.785  467.007  463.272  460.233  456.979  452.768  447.197  443.888  437.590  432.047  425.201  418.021  410.320  402.759  395.332  386.658  377.509  367.152  357.225  347.547  337.982  327.399  315.925  305.119  295.297  284.032  272.280 
