DATE 2015:190:19:48:57 obsn   0 az  98 el 15 freq_MHz  1420.4000 Tsys 171.000 Tant 44.006 vlsr   11.88 glat 50.465 glon  3.838 source 
Fstart 1419.397 fstop 1421.403 spacing 0.009375 bw    2.400 fbw    2.000 MHz nfreq 256 nsam 5242880 npoint 214 integ   107 sigma    0.171 bsw 0
Spectrum     98 integration periods
 252.306  247.322  245.766  245.896  244.853  245.755  245.682  245.504  245.867  246.458  246.161  245.529  246.006  245.343  246.076  245.212  246.099  244.822  244.844  245.428  244.997  245.533  245.609  245.693  245.812  246.487  246.591  245.774  246.171  246.504  246.331  245.976  246.512  246.315  246.106  246.033  245.456  245.751  245.895  245.561  248.741  246.563  246.067  246.138  245.605  246.287  245.866  247.436  247.006  246.325  246.386  246.540  246.599  246.666  246.887  246.373  249.540  246.913  246.783  246.898  247.538  247.361  247.007  247.841  247.664  336.971  247.999  247.289  248.488  246.994  247.564  247.844  247.242  247.099  246.847  247.365  247.214  247.231  246.995  247.810  247.404  246.875  247.477  247.869  247.642  247.685  248.165  249.624  247.677  247.896  248.086  248.287  248.463  248.032  249.669  250.245  249.417  250.011  249.561  249.676  250.332  251.528  254.371  265.580  258.915  256.467  253.629  251.843  250.827  249.975  250.629  249.523  249.479  249.067  249.388  249.228  249.070  248.716  249.231  249.054  248.771  249.435  248.914  249.278  248.667  249.126  268.498  267.429  248.969  259.205  249.258  249.462  248.733  248.968  250.993  248.904  249.071  248.961  248.870  249.162  249.618  249.735  249.665  248.986  249.177  249.402  249.241  249.943  249.408  250.465  249.958  250.137  250.650  250.521  250.161  251.217  250.677  250.449  249.858  250.137  250.252  249.928  250.535  250.914  249.738  249.844  249.656  250.175  249.795  250.005  250.168  249.976  250.806  252.604  250.266  250.419  250.419  250.011  249.835  250.532  250.513  252.148  250.623  250.523  250.793  250.705  250.464  250.622  251.077  251.626  250.834  251.568  252.056  251.735  251.407  251.960  252.366  251.824  252.780  252.099  252.090  252.116  251.886  252.695  252.834  252.427  252.398  252.122  251.963  252.103  252.073  251.997  253.003  253.335 
DATE 2015:190:19:49:10 obsn   1 az  98 el 15 freq_MHz  1420.4000 Tsys 171.000 Tant 43.333 vlsr   11.85 glat 50.420 glon  3.896 source 
Fstart 1419.397 fstop 1421.403 spacing 0.009375 bw    2.400 fbw    2.000 MHz nfreq 256 nsam 5242880 npoint 214 integ   118 sigma    0.163 bsw 0
Spectrum    108 integration periods
 248.993  244.136  242.480  242.728  241.502  242.508  242.422  242.259  242.614  243.086  242.654  242.178  242.755  242.219  242.809  241.991  242.754  241.629  241.632  241.991  241.808  242.365  242.306  242.508  242.505  243.249  243.382  242.547  242.863  243.180  243.014  242.698  243.174  243.053  242.936  242.947  242.298  242.469  242.562  242.298  245.546  243.291  242.796  242.933  242.320  243.031  242.505  244.035  243.838  243.033  243.143  243.251  243.338  243.410  243.604  243.184  246.501  243.724  243.478  243.685  244.370  244.044  243.775  244.574  244.449  325.467  244.729  244.076  245.271  243.708  244.362  244.539  244.050  243.899  243.636  244.157  243.958  244.020  243.841  244.637  244.295  243.640  244.138  244.672  244.469  244.324  244.902  246.468  244.507  244.572  244.855  244.950  245.227  244.870  246.464  247.058  246.213  246.824  246.461  246.582  247.142  248.288  251.110  262.501  255.685  253.268  250.507  248.732  247.801  246.818  247.468  246.311  246.292  245.890  246.157  245.897  245.941  245.541  246.065  245.849  245.646  246.325  245.759  246.123  245.577  245.928  263.591  262.543  245.667  255.225  246.027  246.243  245.559  245.782  247.894  245.747  245.897  245.718  245.672  245.894  246.309  246.536  246.507  245.806  245.885  246.199  246.043  246.779  246.205  247.281  246.874  246.984  247.482  247.403  246.994  248.010  247.422  247.281  246.743  247.023  247.183  246.746  247.315  247.712  246.603  246.719  246.565  246.970  246.659  246.747  247.014  246.775  247.614  249.366  247.129  247.131  247.307  246.944  246.596  247.333  247.356  248.924  247.396  247.445  247.700  247.607  247.250  247.549  247.886  248.598  247.688  248.369  248.873  248.460  248.196  248.876  249.224  248.675  249.546  248.999  248.993  248.956  248.655  249.579  249.707  249.328  249.119  249.082  248.789  248.873  248.960  248.853  249.949  250.209 
DATE 2015:190:19:49:24 obsn   2 az  98 el 15 freq_MHz  1420.4000 Tsys 171.000 Tant 44.413 vlsr   11.83 glat 50.374 glon  3.953 source 
Fstart 1419.397 fstop 1421.403 spacing 0.009375 bw    2.400 fbw    2.000 MHz nfreq 256 nsam 5242880 npoint 214 integ   129 sigma    0.156 bsw 0
Spectrum    118 integration periods
 246.178  241.441  239.753  240.031  238.795  239.784  239.721  239.609  239.924  240.353  239.984  239.510  240.041  239.569  240.107  239.284  239.941  238.843  239.016  239.367  239.071  239.702  239.633  239.826  239.775  240.498  240.591  239.855  240.238  240.468  240.353  239.978  240.483  240.345  240.285  240.292  239.673  239.727  239.935  239.606  242.944  240.546  240.034  240.171  239.721  240.277  239.808  241.399  241.090  240.404  240.431  240.540  240.555  240.760  240.863  240.417  243.806  240.926  240.681  241.058  241.727  241.495  241.058  241.834  241.822  316.051  242.099  241.418  242.660  241.032  241.618  241.917  241.382  241.333  240.940  241.408  241.200  241.411  241.169  241.884  241.674  240.941  241.474  241.981  241.809  241.638  242.162  243.662  241.892  241.798  242.116  242.237  242.599  242.202  243.715  244.333  243.529  244.126  243.774  243.906  244.568  245.621  248.520  259.900  253.010  250.577  247.749  246.214  245.173  244.139  244.854  243.663  243.699  243.227  243.525  243.225  243.240  242.828  243.465  243.254  242.966  243.568  243.135  243.516  243.065  243.322  259.483  258.499  243.077  251.926  243.483  243.529  242.938  243.093  245.195  243.013  243.234  243.065  242.989  243.272  243.717  243.909  243.801  243.115  243.207  243.597  243.381  244.086  243.545  244.603  244.292  244.280  244.697  244.719  244.394  245.442  244.801  244.547  244.159  244.348  244.590  244.103  244.671  245.012  244.034  244.142  243.972  244.347  244.045  244.179  244.397  244.159  244.945  246.675  244.474  244.601  244.701  244.316  243.969  244.672  244.684  246.274  244.797  244.906  244.957  244.882  244.450  244.864  245.119  246.036  245.086  245.776  246.179  245.848  245.608  246.244  246.554  246.004  246.828  246.326  246.479  246.362  246.007  246.874  247.121  246.774  246.475  246.466  246.132  246.189  246.309  246.267  247.402  247.536 
DATE 2015:190:19:49:38 obsn   3 az  98 el 15 freq_MHz  1420.4000 Tsys 171.000 Tant 43.020 vlsr   11.80 glat 50.332 glon  4.006 source 
Fstart 1419.397 fstop 1421.403 spacing 0.009375 bw    2.400 fbw    2.000 MHz nfreq 256 nsam 5242880 npoint 214 integ   140 sigma    0.149 bsw 0
Spectrum    128 integration periods
 243.797  239.104  237.503  237.663  236.525  237.388  237.344  237.245  237.635  237.997  237.655  237.221  237.657  237.350  237.773  236.885  237.572  236.538  236.704  236.987  236.822  237.467  237.331  237.521  237.393  238.202  238.204  237.572  237.897  238.163  238.113  237.730  238.213  238.136  237.950  238.002  237.461  237.467  237.655  237.317  240.564  238.175  237.673  237.884  237.430  237.939  237.562  239.039  238.740  238.153  238.161  238.213  238.277  238.444  238.513  238.175  241.530  238.591  238.393  238.774  239.407  239.160  238.789  239.441  239.527  308.026  239.751  239.180  240.381  238.683  239.289  239.530  239.217  239.003  238.633  239.150  238.989  239.171  238.876  239.555  239.397  238.698  239.249  239.765  239.485  239.235  239.842  241.436  239.640  239.549  239.913  240.030  240.368  239.988  241.417  242.066  241.298  241.771  241.447  241.726  242.266  243.414  246.300  257.663  250.755  248.283  245.473  243.925  242.802  241.821  242.527  241.446  241.418  240.951  241.317  240.950  240.931  240.543  241.322  240.975  240.663  241.238  240.914  241.301  240.834  240.982  255.932  255.007  240.807  249.013  241.220  241.235  240.727  240.834  242.849  240.719  240.927  240.937  240.747  241.088  241.410  241.660  241.527  240.830  240.962  241.321  241.234  241.782  241.243  242.286  242.131  241.992  242.474  242.484  242.126  243.201  242.471  242.255  241.982  242.140  242.280  241.868  242.426  242.780  241.800  241.892  241.750  242.115  241.864  242.019  242.169  241.923  242.689  244.372  242.192  242.310  242.519  242.078  241.705  242.323  242.338  243.884  242.542  242.677  242.643  242.650  242.269  242.578  242.952  243.915  242.864  243.576  243.961  243.553  243.290  243.906  244.283  243.731  244.595  244.062  244.218  244.111  243.876  244.618  244.969  244.479  244.266  244.247  243.915  243.951  244.180  244.134  245.094  245.256 
