DATE 2016:349:20:00:00 obsn   0 az  56 el 26 freq_MHz  1420.4000 Tsys 171.000 Tant 172.756 vlsr   16.53 glat -21.519 glon 121.367 source Andr 
Fstart 1419.397 fstop 1421.403 spacing 0.009375 bw    2.400 fbw    2.000 MHz nfreq 256 nsam 5242880 npoint 214 integ     9 sigma    0.597 bsw 0
Spectrum      8 integration periods
 206.812  207.425  208.920  210.380  209.307  207.882  209.223  209.815  209.804  210.985  208.602  209.744  211.579  211.450  209.368  210.107  209.702  208.221  209.654  208.999  208.698  207.658  208.962  208.446  207.815  206.831  208.717  208.026  208.003  207.542  207.462  207.729  208.419  208.683  208.372  206.661  208.556  209.042  208.614  208.245  208.750  209.274  208.583  208.570  208.725  209.705  209.749  209.455  209.137  209.005  209.432  211.437  210.689  210.337  209.887  208.938  208.476  206.864  209.537  209.452  208.889  208.858  209.101  208.412  206.326  208.620  206.881  207.325  208.656  208.703  207.442  209.074  208.169  209.034  210.105  208.899  208.792  209.586  209.720  209.422  207.342  209.975  210.122  209.183  207.518  208.773  209.880  208.951  209.841  209.030  209.156  208.942  208.764  208.402  208.120  207.682  208.980  209.865  208.096  209.088  209.223  209.255  209.241  208.068  208.679  208.451  208.721  208.018  207.446  208.175  209.201  208.271  210.096  210.824  209.968  209.135  206.731  208.561  208.194  207.190  207.811  209.740  208.058  209.413  209.107  208.008  207.578  209.112  208.339  207.837  208.568  210.027  208.669  207.886  208.764  209.547  209.699  209.355  208.879  209.915  207.054  208.288  209.384  207.937  208.686  207.157  207.523  209.392  209.661  206.738  207.675  208.784  208.468  207.819  210.296  209.029  209.327  208.826  208.370  208.048  208.572  208.435  209.760  210.038  209.090  208.226  208.777  208.126  210.026  207.492  209.102  208.261  207.740  207.160  207.003  209.791  208.515  208.877  208.011  208.360  209.908  209.871  208.121  208.000  208.286  209.179  207.732  207.440  207.773  209.073  207.847  208.925  208.099  208.221  208.763  209.082  209.253  208.618  208.549  208.056  208.688  208.162  208.775  207.126  208.634  209.898  208.678  208.488  209.463  210.167  209.292  208.815  207.846  208.531 
